LabVIEW Measurement	
Writer_Version	2
Reader_Version	2
Separator	Tab
Decimal_Separator	.
Multi_Headings	No
X_Columns	One
Time_Pref	Absolute
Operator	biomech-dyno
Date	2023/05/24
Time	17:17:03.6544158999996145439
***End_of_Header***	
	
Channels	1	
Samples	10	
Date	2023/05/24	
Time	17:28:46.1138218999998944603	
X_Dimension	Time	
X0	0.0000000000000000E+0	
Delta_X	0.010000	
***End_of_Header***		
X_Value	Untitled	Comment
0.000000	25.076782
0.010000	25.076782
0.020000	25.076782
0.030000	25.076782
0.040000	25.076782
0.050000	25.076782
0.060000	25.076782
0.070000	25.076782
0.080000	25.076782
0.090000	25.076782
0.100000	25.076782
0.110000	25.076782
0.120000	25.076782
0.130000	25.076782
0.140000	25.076782
0.150000	25.076782
0.160000	25.076782
0.170000	25.076782
0.180000	25.076782
0.190000	25.076782
0.200000	25.076782
0.210000	25.076782
0.220000	25.076782
0.230000	25.076782
0.240000	25.076782
0.250000	25.076782
0.260000	25.076782
0.270000	25.076782
0.280000	25.076782
0.290000	25.076782
0.300000	25.076782
0.310000	25.076782
0.320000	25.076782
0.330000	25.076782
0.340000	25.076782
0.350000	25.076782
0.360000	25.076782
0.370000	25.076782
0.380000	25.076782
0.390000	25.076782
0.400000	25.076782
0.410000	25.076782
0.420000	25.076782
0.430000	25.076782
0.440000	25.076782
0.450000	25.076782
0.460000	25.076782
0.470000	25.076782
0.480000	25.076782
0.490000	25.076782
0.500000	25.155576
0.510000	25.155576
0.520000	25.155576
0.530000	25.155576
0.540000	25.155576
0.550000	25.155576
0.560000	25.155576
0.570000	25.155576
0.580000	25.155576
0.590000	25.155576
0.600000	25.155576
0.610000	25.155576
0.620000	25.155576
0.630000	25.155576
0.640000	25.155576
0.650000	25.155576
0.660000	25.155576
0.670000	25.155576
0.680000	25.155576
0.690000	25.155576
0.700000	25.155576
0.710000	25.155576
0.720000	25.155576
0.730000	25.155576
0.740000	25.155576
0.750000	25.155576
0.760000	25.155576
0.770000	25.155576
0.780000	25.155576
0.790000	25.155576
0.800000	25.155576
0.810000	25.155576
0.820000	25.155576
0.830000	25.155576
0.840000	25.155576
0.850000	25.155576
0.860000	25.155576
0.870000	25.155576
0.880000	25.155576
0.890000	25.155576
0.900000	25.155576
0.910000	25.155576
0.920000	25.155576
0.930000	25.155576
0.940000	25.155576
0.950000	25.155576
0.960000	25.155576
0.970000	25.155576
0.980000	25.155576
0.990000	25.155576
1.000000	26.000185
1.010000	26.000185
1.020000	26.000185
1.030000	26.000185
1.040000	26.000185
1.050000	26.000185
1.060000	26.000185
1.070000	26.000185
1.080000	26.000185
1.090000	26.000185
1.100000	26.000185
1.110000	26.000185
1.120000	26.000185
1.130000	26.000185
1.140000	26.000185
1.150000	26.000185
1.160000	26.000185
1.170000	26.000185
1.180000	26.000185
1.190000	26.000185
1.200000	26.000185
1.210000	26.000185
1.220000	26.000185
1.230000	26.000185
1.240000	26.000185
1.250000	26.000185
1.260000	26.000185
1.270000	26.000185
1.280000	26.000185
1.290000	26.000185
1.300000	26.000185
1.310000	26.000185
1.320000	26.000185
1.330000	26.000185
1.340000	26.000185
1.350000	26.000185
1.360000	26.000185
1.370000	26.000185
1.380000	26.000185
1.390000	26.000185
1.400000	26.000185
1.410000	26.000185
1.420000	26.000185
1.430000	26.000185
1.440000	26.000185
1.450000	26.000185
1.460000	26.000185
1.470000	26.000185
1.480000	26.000185
1.490000	26.000185
1.500000	27.989436
1.510000	27.989436
1.520000	27.989436
1.530000	27.989436
1.540000	27.989436
1.550000	27.989436
1.560000	27.989436
1.570000	27.989436
1.580000	27.989436
1.590000	27.989436
1.600000	27.989436
1.610000	27.989436
1.620000	27.989436
1.630000	27.989436
1.640000	27.989436
1.650000	27.989436
1.660000	27.989436
1.670000	27.989436
1.680000	27.989436
1.690000	27.989436
1.700000	27.989436
1.710000	27.989436
1.720000	27.989436
1.730000	27.989436
1.740000	27.989436
1.750000	27.989436
1.760000	27.989436
1.770000	27.989436
1.780000	27.989436
1.790000	27.989436
1.800000	27.989436
1.810000	27.989436
1.820000	27.989436
1.830000	27.989436
1.840000	27.989436
1.850000	27.989436
1.860000	27.989436
1.870000	27.989436
1.880000	27.989436
1.890000	27.989436
1.900000	27.989436
1.910000	27.989436
1.920000	27.989436
1.930000	27.989436
1.940000	27.989436
1.950000	27.989436
1.960000	27.989436
1.970000	27.989436
1.980000	27.989436
1.990000	27.989436
2.000000	30.941566
2.010000	30.941566
2.020000	30.941566
2.030000	30.941566
2.040000	30.941566
2.050000	30.941566
2.060000	30.941566
2.070000	30.941566
2.080000	30.941566
2.090000	30.941566
2.100000	30.941566
2.110000	30.941566
2.120000	30.941566
2.130000	30.941566
2.140000	30.941566
2.150000	30.941566
2.160000	30.941566
2.170000	30.941566
2.180000	30.941566
2.190000	30.941566
2.200000	30.941566
2.210000	30.941566
2.220000	30.941566
2.230000	30.941566
2.240000	30.941566
2.250000	30.941566
2.260000	30.941566
2.270000	30.941566
2.280000	30.941566
2.290000	30.941566
2.300000	30.941566
2.310000	30.941566
2.320000	30.941566
2.330000	30.941566
2.340000	30.941566
2.350000	30.941566
2.360000	30.941566
2.370000	30.941566
2.380000	30.941566
2.390000	30.941566
2.400000	30.941566
2.410000	30.941566
2.420000	30.941566
2.430000	30.941566
2.440000	30.941566
2.450000	30.941566
2.460000	30.941566
2.470000	30.941566
2.480000	30.941566
2.490000	30.941566
2.500000	34.649253
2.510000	34.649253
2.520000	34.649253
2.530000	34.649253
2.540000	34.649253
2.550000	34.649253
2.560000	34.649253
2.570000	34.649253
2.580000	34.649253
2.590000	34.649253
2.600000	34.649253
2.610000	34.649253
2.620000	34.649253
2.630000	34.649253
2.640000	34.649253
2.650000	34.649253
2.660000	34.649253
2.670000	34.649253
2.680000	34.649253
2.690000	34.649253
2.700000	34.649253
2.710000	34.649253
2.720000	34.649253
2.730000	34.649253
2.740000	34.649253
2.750000	34.649253
2.760000	34.649253
2.770000	34.649253
2.780000	34.649253
2.790000	34.649253
2.800000	34.649253
2.810000	34.649253
2.820000	34.649253
2.830000	34.649253
2.840000	34.649253
2.850000	34.649253
2.860000	34.649253
2.870000	34.649253
2.880000	34.649253
2.890000	34.649253
2.900000	34.649253
2.910000	34.649253
2.920000	34.649253
2.930000	34.649253
2.940000	34.649253
2.950000	34.649253
2.960000	34.649253
2.970000	34.649253
2.980000	34.649253
2.990000	34.649253
3.000000	38.841773
3.010000	38.841773
3.020000	38.841773
3.030000	38.841773
3.040000	38.841773
3.050000	38.841773
3.060000	38.841773
3.070000	38.841773
3.080000	38.841773
3.090000	38.841773
3.100000	38.841773
3.110000	38.841773
3.120000	38.841773
3.130000	38.841773
3.140000	38.841773
3.150000	38.841773
3.160000	38.841773
3.170000	38.841773
3.180000	38.841773
3.190000	38.841773
3.200000	38.841773
3.210000	38.841773
3.220000	38.841773
3.230000	38.841773
3.240000	38.841773
3.250000	38.841773
3.260000	38.841773
3.270000	38.841773
3.280000	38.841773
3.290000	38.841773
3.300000	38.841773
3.310000	38.841773
3.320000	38.841773
3.330000	38.841773
3.340000	38.841773
3.350000	38.841773
3.360000	38.841773
3.370000	38.841773
3.380000	38.841773
3.390000	38.841773
3.400000	38.841773
3.410000	38.841773
3.420000	38.841773
3.430000	38.841773
3.440000	38.841773
3.450000	38.841773
3.460000	38.841773
3.470000	38.841773
3.480000	38.841773
3.490000	38.841773
3.500000	42.598398
3.510000	42.598398
3.520000	42.598398
3.530000	42.598398
3.540000	42.598398
3.550000	42.598398
3.560000	42.598398
3.570000	42.598398
3.580000	42.598398
3.590000	42.598398
3.600000	42.598398
3.610000	42.598398
3.620000	42.598398
3.630000	42.598398
3.640000	42.598398
3.650000	42.598398
3.660000	42.598398
3.670000	42.598398
3.680000	42.598398
3.690000	42.598398
3.700000	42.598398
3.710000	42.598398
3.720000	42.598398
3.730000	42.598398
3.740000	42.598398
3.750000	42.598398
3.760000	42.598398
3.770000	42.598398
3.780000	42.598398
3.790000	42.598398
3.800000	42.598398
3.810000	42.598398
3.820000	42.598398
3.830000	42.598398
3.840000	42.598398
3.850000	42.598398
3.860000	42.598398
3.870000	42.598398
3.880000	42.598398
3.890000	42.598398
3.900000	42.598398
3.910000	42.598398
3.920000	42.598398
3.930000	42.598398
3.940000	42.598398
3.950000	42.598398
3.960000	42.598398
3.970000	42.598398
3.980000	42.598398
3.990000	42.598398
4.000000	45.391653
4.010000	45.391653
4.020000	45.391653
4.030000	45.391653
4.040000	45.391653
4.050000	45.391653
4.060000	45.391653
4.070000	45.391653
4.080000	45.391653
4.090000	45.391653
4.100000	45.391653
4.110000	45.391653
4.120000	45.391653
4.130000	45.391653
4.140000	45.391653
4.150000	45.391653
4.160000	45.391653
4.170000	45.391653
4.180000	45.391653
4.190000	45.391653
4.200000	45.391653
4.210000	45.391653
4.220000	45.391653
4.230000	45.391653
4.240000	45.391653
4.250000	45.391653
4.260000	45.391653
4.270000	45.391653
4.280000	45.391653
4.290000	45.391653
4.300000	45.391653
4.310000	45.391653
4.320000	45.391653
4.330000	45.391653
4.340000	45.391653
4.350000	45.391653
4.360000	45.391653
4.370000	45.391653
4.380000	45.391653
4.390000	45.391653
4.400000	45.391653
4.410000	45.391653
4.420000	45.391653
4.430000	45.391653
4.440000	45.391653
4.450000	45.391653
4.460000	45.391653
4.470000	45.391653
4.480000	45.391653
4.490000	45.391653
4.500000	47.437109
4.510000	47.437109
4.520000	47.437109
4.530000	47.437109
4.540000	47.437109
4.550000	47.437109
4.560000	47.437109
4.570000	47.437109
4.580000	47.437109
4.590000	47.437109
4.600000	47.437109
4.610000	47.437109
4.620000	47.437109
4.630000	47.437109
4.640000	47.437109
4.650000	47.437109
4.660000	47.437109
4.670000	47.437109
4.680000	47.437109
4.690000	47.437109
4.700000	47.437109
4.710000	47.437109
4.720000	47.437109
4.730000	47.437109
4.740000	47.437109
4.750000	47.437109
4.760000	47.437109
4.770000	47.437109
4.780000	47.437109
4.790000	47.437109
4.800000	47.437109
4.810000	47.437109
4.820000	47.437109
4.830000	47.437109
4.840000	47.437109
4.850000	47.437109
4.860000	47.437109
4.870000	47.437109
4.880000	47.437109
4.890000	47.437109
4.900000	47.437109
4.910000	47.437109
4.920000	47.437109
4.930000	47.437109
4.940000	47.437109
4.950000	47.437109
4.960000	47.437109
4.970000	47.437109
4.980000	47.437109
4.990000	47.437109
5.000000	48.881585
5.010000	48.881585
5.020000	48.881585
5.030000	48.881585
5.040000	48.881585
5.050000	48.881585
5.060000	48.881585
5.070000	48.881585
5.080000	48.881585
5.090000	48.881585
5.100000	48.881585
5.110000	48.881585
5.120000	48.881585
5.130000	48.881585
5.140000	48.881585
5.150000	48.881585
5.160000	48.881585
5.170000	48.881585
5.180000	48.881585
5.190000	48.881585
5.200000	48.881585
5.210000	48.881585
5.220000	48.881585
5.230000	48.881585
5.240000	48.881585
5.250000	48.881585
5.260000	48.881585
5.270000	48.881585
5.280000	48.881585
5.290000	48.881585
5.300000	48.881585
5.310000	48.881585
5.320000	48.881585
5.330000	48.881585
5.340000	48.881585
5.350000	48.881585
5.360000	48.881585
5.370000	48.881585
5.380000	48.881585
5.390000	48.881585
5.400000	48.881585
5.410000	48.881585
5.420000	48.881585
5.430000	48.881585
5.440000	48.881585
5.450000	48.881585
5.460000	48.881585
5.470000	48.881585
5.480000	48.881585
5.490000	48.881585
5.500000	49.873765
5.510000	49.873765
5.520000	49.873765
5.530000	49.873765
5.540000	49.873765
5.550000	49.873765
5.560000	49.873765
5.570000	49.873765
5.580000	49.873765
5.590000	49.873765
5.600000	49.873765
5.610000	49.873765
5.620000	49.873765
5.630000	49.873765
5.640000	49.873765
5.650000	49.873765
5.660000	49.873765
5.670000	49.873765
5.680000	49.873765
5.690000	49.873765
5.700000	49.873765
5.710000	49.873765
5.720000	49.873765
5.730000	49.873765
5.740000	49.873765
5.750000	49.873765
5.760000	49.873765
5.770000	49.873765
5.780000	49.873765
5.790000	49.873765
5.800000	49.873765
5.810000	49.873765
5.820000	49.873765
5.830000	49.873765
5.840000	49.873765
5.850000	49.873765
5.860000	49.873765
5.870000	49.873765
5.880000	49.873765
5.890000	49.873765
5.900000	49.873765
5.910000	49.873765
5.920000	49.873765
5.930000	49.873765
5.940000	49.873765
5.950000	49.873765
5.960000	49.873765
5.970000	49.873765
5.980000	49.873765
5.990000	49.873765
6.000000	50.517515
6.010000	50.517515
6.020000	50.517515
6.030000	50.517515
6.040000	50.517515
6.050000	50.517515
6.060000	50.517515
6.070000	50.517515
6.080000	50.517515
6.090000	50.517515
6.100000	50.517515
6.110000	50.517515
6.120000	50.517515
6.130000	50.517515
6.140000	50.517515
6.150000	50.517515
6.160000	50.517515
6.170000	50.517515
6.180000	50.517515
6.190000	50.517515
6.200000	50.517515
6.210000	50.517515
6.220000	50.517515
6.230000	50.517515
6.240000	50.517515
6.250000	50.517515
6.260000	50.517515
6.270000	50.517515
6.280000	50.517515
6.290000	50.517515
6.300000	50.517515
6.310000	50.517515
6.320000	50.517515
6.330000	50.517515
6.340000	50.517515
6.350000	50.517515
6.360000	50.517515
6.370000	50.517515
6.380000	50.517515
6.390000	50.517515
6.400000	50.517515
6.410000	50.517515
6.420000	50.517515
6.430000	50.517515
6.440000	50.517515
6.450000	50.517515
6.460000	50.517515
6.470000	50.517515
6.480000	50.517515
6.490000	50.517515
6.500000	50.886010
6.510000	50.886010
6.520000	50.886010
6.530000	50.886010
6.540000	50.886010
6.550000	50.886010
6.560000	50.886010
6.570000	50.886010
6.580000	50.886010
6.590000	50.886010
6.600000	50.886010
6.610000	50.886010
6.620000	50.886010
6.630000	50.886010
6.640000	50.886010
6.650000	50.886010
6.660000	50.886010
6.670000	50.886010
6.680000	50.886010
6.690000	50.886010
6.700000	50.886010
6.710000	50.886010
6.720000	50.886010
6.730000	50.886010
6.740000	50.886010
6.750000	50.886010
6.760000	50.886010
6.770000	50.886010
6.780000	50.886010
6.790000	50.886010
6.800000	50.886010
6.810000	50.886010
6.820000	50.886010
6.830000	50.886010
6.840000	50.886010
6.850000	50.886010
6.860000	50.886010
6.870000	50.886010
6.880000	50.886010
6.890000	50.886010
6.900000	50.886010
6.910000	50.886010
6.920000	50.886010
6.930000	50.886010
6.940000	50.886010
6.950000	50.886010
6.960000	50.886010
6.970000	50.886010
6.980000	50.886010
6.990000	50.886010
7.000000	51.037358
7.010000	51.037358
7.020000	51.037358
7.030000	51.037358
7.040000	51.037358
7.050000	51.037358
7.060000	51.037358
7.070000	51.037358
7.080000	51.037358
7.090000	51.037358
7.100000	51.037358
7.110000	51.037358
7.120000	51.037358
7.130000	51.037358
7.140000	51.037358
7.150000	51.037358
7.160000	51.037358
7.170000	51.037358
7.180000	51.037358
7.190000	51.037358
7.200000	51.037358
7.210000	51.037358
7.220000	51.037358
7.230000	51.037358
7.240000	51.037358
7.250000	51.037358
7.260000	51.037358
7.270000	51.037358
7.280000	51.037358
7.290000	51.037358
7.300000	51.037358
7.310000	51.037358
7.320000	51.037358
7.330000	51.037358
7.340000	51.037358
7.350000	51.037358
7.360000	51.037358
7.370000	51.037358
7.380000	51.037358
7.390000	51.037358
7.400000	51.037358
7.410000	51.037358
7.420000	51.037358
7.430000	51.037358
7.440000	51.037358
7.450000	51.037358
7.460000	51.037358
7.470000	51.037358
7.480000	51.037358
7.490000	51.037358
7.500000	51.025229
7.510000	51.025229
7.520000	51.025229
7.530000	51.025229
7.540000	51.025229
7.550000	51.025229
7.560000	51.025229
7.570000	51.025229
7.580000	51.025229
7.590000	51.025229
7.600000	51.025229
7.610000	51.025229
7.620000	51.025229
7.630000	51.025229
7.640000	51.025229
7.650000	51.025229
7.660000	51.025229
7.670000	51.025229
7.680000	51.025229
7.690000	51.025229
7.700000	51.025229
7.710000	51.025229
7.720000	51.025229
7.730000	51.025229
7.740000	51.025229
7.750000	51.025229
7.760000	51.025229
7.770000	51.025229
7.780000	51.025229
7.790000	51.025229
7.800000	51.025229
7.810000	51.025229
7.820000	51.025229
7.830000	51.025229
7.840000	51.025229
7.850000	51.025229
7.860000	51.025229
7.870000	51.025229
7.880000	51.025229
7.890000	51.025229
7.900000	51.025229
7.910000	51.025229
7.920000	51.025229
7.930000	51.025229
7.940000	51.025229
7.950000	51.025229
7.960000	51.025229
7.970000	51.025229
7.980000	51.025229
7.990000	51.025229
8.000000	50.893751
8.010000	50.893751
8.020000	50.893751
8.030000	50.893751
8.040000	50.893751
8.050000	50.893751
8.060000	50.893751
8.070000	50.893751
8.080000	50.893751
8.090000	50.893751
8.100000	50.893751
8.110000	50.893751
8.120000	50.893751
8.130000	50.893751
8.140000	50.893751
8.150000	50.893751
8.160000	50.893751
8.170000	50.893751
8.180000	50.893751
8.190000	50.893751
8.200000	50.893751
8.210000	50.893751
8.220000	50.893751
8.230000	50.893751
8.240000	50.893751
8.250000	50.893751
8.260000	50.893751
8.270000	50.893751
8.280000	50.893751
8.290000	50.893751
8.300000	50.893751
8.310000	50.893751
8.320000	50.893751
8.330000	50.893751
8.340000	50.893751
8.350000	50.893751
8.360000	50.893751
8.370000	50.893751
8.380000	50.893751
8.390000	50.893751
8.400000	50.893751
8.410000	50.893751
8.420000	50.893751
8.430000	50.893751
8.440000	50.893751
8.450000	50.893751
8.460000	50.893751
8.470000	50.893751
8.480000	50.893751
8.490000	50.893751
8.500000	50.673929
8.510000	50.673929
8.520000	50.673929
8.530000	50.673929
8.540000	50.673929
8.550000	50.673929
8.560000	50.673929
8.570000	50.673929
8.580000	50.673929
8.590000	50.673929
8.600000	50.673929
8.610000	50.673929
8.620000	50.673929
8.630000	50.673929
8.640000	50.673929
8.650000	50.673929
8.660000	50.673929
8.670000	50.673929
8.680000	50.673929
8.690000	50.673929
8.700000	50.673929
8.710000	50.673929
8.720000	50.673929
8.730000	50.673929
8.740000	50.673929
8.750000	50.673929
8.760000	50.673929
8.770000	50.673929
8.780000	50.673929
8.790000	50.673929
8.800000	50.673929
8.810000	50.673929
8.820000	50.673929
8.830000	50.673929
8.840000	50.673929
8.850000	50.673929
8.860000	50.673929
8.870000	50.673929
8.880000	50.673929
8.890000	50.673929
8.900000	50.673929
8.910000	50.673929
8.920000	50.673929
8.930000	50.673929
8.940000	50.673929
8.950000	50.673929
8.960000	50.673929
8.970000	50.673929
8.980000	50.673929
8.990000	50.673929
9.000000	50.382246
9.010000	50.382246
9.020000	50.382246
9.030000	50.382246
9.040000	50.382246
9.050000	50.382246
9.060000	50.382246
9.070000	50.382246
9.080000	50.382246
9.090000	50.382246
9.100000	50.382246
9.110000	50.382246
9.120000	50.382246
9.130000	50.382246
9.140000	50.382246
9.150000	50.382246
9.160000	50.382246
9.170000	50.382246
9.180000	50.382246
9.190000	50.382246
9.200000	50.382246
9.210000	50.382246
9.220000	50.382246
9.230000	50.382246
9.240000	50.382246
9.250000	50.382246
9.260000	50.382246
9.270000	50.382246
9.280000	50.382246
9.290000	50.382246
9.300000	50.382246
9.310000	50.382246
9.320000	50.382246
9.330000	50.382246
9.340000	50.382246
9.350000	50.382246
9.360000	50.382246
9.370000	50.382246
9.380000	50.382246
9.390000	50.382246
9.400000	50.382246
9.410000	50.382246
9.420000	50.382246
9.430000	50.382246
9.440000	50.382246
9.450000	50.382246
9.460000	50.382246
9.470000	50.382246
9.480000	50.382246
9.490000	50.382246
9.500000	50.035064
9.510000	50.035064
9.520000	50.035064
9.530000	50.035064
9.540000	50.035064
9.550000	50.035064
9.560000	50.035064
9.570000	50.035064
9.580000	50.035064
9.590000	50.035064
9.600000	50.035064
9.610000	50.035064
9.620000	50.035064
9.630000	50.035064
9.640000	50.035064
9.650000	50.035064
9.660000	50.035064
9.670000	50.035064
9.680000	50.035064
9.690000	50.035064
9.700000	50.035064
9.710000	50.035064
9.720000	50.035064
9.730000	50.035064
9.740000	50.035064
9.750000	50.035064
9.760000	50.035064
9.770000	50.035064
9.780000	50.035064
9.790000	50.035064
9.800000	50.035064
9.810000	50.035064
9.820000	50.035064
9.830000	50.035064
9.840000	50.035064
9.850000	50.035064
9.860000	50.035064
9.870000	50.035064
9.880000	50.035064
9.890000	50.035064
9.900000	50.035064
9.910000	50.035064
9.920000	50.035064
9.930000	50.035064
9.940000	50.035064
9.950000	50.035064
9.960000	50.035064
9.970000	50.035064
9.980000	50.035064
9.990000	50.035064
10.000000	49.645237
10.010000	49.645237
10.020000	49.645237
10.030000	49.645237
10.040000	49.645237
10.050000	49.645237
10.060000	49.645237
10.070000	49.645237
10.080000	49.645237
10.090000	49.645237
10.100000	49.645237
10.110000	49.645237
10.120000	49.645237
10.130000	49.645237
10.140000	49.645237
10.150000	49.645237
10.160000	49.645237
10.170000	49.645237
10.180000	49.645237
10.190000	49.645237
10.200000	49.645237
10.210000	49.645237
10.220000	49.645237
10.230000	49.645237
10.240000	49.645237
10.250000	49.645237
10.260000	49.645237
10.270000	49.645237
10.280000	49.645237
10.290000	49.645237
10.300000	49.645237
10.310000	49.645237
10.320000	49.645237
10.330000	49.645237
10.340000	49.645237
10.350000	49.645237
10.360000	49.645237
10.370000	49.645237
10.380000	49.645237
10.390000	49.645237
10.400000	49.645237
10.410000	49.645237
10.420000	49.645237
10.430000	49.645237
10.440000	49.645237
10.450000	49.645237
10.460000	49.645237
10.470000	49.645237
10.480000	49.645237
10.490000	49.645237
10.500000	49.225316
10.510000	49.225316
10.520000	49.225316
10.530000	49.225316
10.540000	49.225316
10.550000	49.225316
10.560000	49.225316
10.570000	49.225316
10.580000	49.225316
10.590000	49.225316
10.600000	49.225316
10.610000	49.225316
10.620000	49.225316
10.630000	49.225316
10.640000	49.225316
10.650000	49.225316
10.660000	49.225316
10.670000	49.225316
10.680000	49.225316
10.690000	49.225316
10.700000	49.225316
10.710000	49.225316
10.720000	49.225316
10.730000	49.225316
10.740000	49.225316
10.750000	49.225316
10.760000	49.225316
10.770000	49.225316
10.780000	49.225316
10.790000	49.225316
10.800000	49.225316
10.810000	49.225316
10.820000	49.225316
10.830000	49.225316
10.840000	49.225316
10.850000	49.225316
10.860000	49.225316
10.870000	49.225316
10.880000	49.225316
10.890000	49.225316
10.900000	49.225316
10.910000	49.225316
10.920000	49.225316
10.930000	49.225316
10.940000	49.225316
10.950000	49.225316
10.960000	49.225316
10.970000	49.225316
10.980000	49.225316
10.990000	49.225316
11.000000	48.786754
11.010000	48.786754
11.020000	48.786754
11.030000	48.786754
11.040000	48.786754
11.050000	48.786754
11.060000	48.786754
11.070000	48.786754
11.080000	48.786754
11.090000	48.786754
11.100000	48.786754
11.110000	48.786754
11.120000	48.786754
11.130000	48.786754
11.140000	48.786754
11.150000	48.786754
11.160000	48.786754
11.170000	48.786754
11.180000	48.786754
11.190000	48.786754
11.200000	48.786754
11.210000	48.786754
11.220000	48.786754
11.230000	48.786754
11.240000	48.786754
11.250000	48.786754
11.260000	48.786754
11.270000	48.786754
11.280000	48.786754
11.290000	48.786754
11.300000	48.786754
11.310000	48.786754
11.320000	48.786754
11.330000	48.786754
11.340000	48.786754
11.350000	48.786754
11.360000	48.786754
11.370000	48.786754
11.380000	48.786754
11.390000	48.786754
11.400000	48.786754
11.410000	48.786754
11.420000	48.786754
11.430000	48.786754
11.440000	48.786754
11.450000	48.786754
11.460000	48.786754
11.470000	48.786754
11.480000	48.786754
11.490000	48.786754
11.500000	48.338250
11.510000	48.338250
11.520000	48.338250
11.530000	48.338250
11.540000	48.338250
11.550000	48.338250
11.560000	48.338250
11.570000	48.338250
11.580000	48.338250
11.590000	48.338250
11.600000	48.338250
11.610000	48.338250
11.620000	48.338250
11.630000	48.338250
11.640000	48.338250
11.650000	48.338250
11.660000	48.338250
11.670000	48.338250
11.680000	48.338250
11.690000	48.338250
11.700000	48.338250
11.710000	48.338250
11.720000	48.338250
11.730000	48.338250
11.740000	48.338250
11.750000	48.338250
11.760000	48.338250
11.770000	48.338250
11.780000	48.338250
11.790000	48.338250
11.800000	48.338250
11.810000	48.338250
11.820000	48.338250
11.830000	48.338250
11.840000	48.338250
11.850000	48.338250
11.860000	48.338250
11.870000	48.338250
11.880000	48.338250
11.890000	48.338250
11.900000	48.338250
11.910000	48.338250
11.920000	48.338250
11.930000	48.338250
11.940000	48.338250
11.950000	48.338250
11.960000	48.338250
11.970000	48.338250
11.980000	48.338250
11.990000	48.338250
12.000000	47.879274
12.010000	47.879274
12.020000	47.879274
12.030000	47.879274
12.040000	47.879274
12.050000	47.879274
12.060000	47.879274
12.070000	47.879274
12.080000	47.879274
12.090000	47.879274
12.100000	47.879274
12.110000	47.879274
12.120000	47.879274
12.130000	47.879274
12.140000	47.879274
12.150000	47.879274
12.160000	47.879274
12.170000	47.879274
12.180000	47.879274
12.190000	47.879274
12.200000	47.879274
12.210000	47.879274
12.220000	47.879274
12.230000	47.879274
12.240000	47.879274
12.250000	47.879274
12.260000	47.879274
12.270000	47.879274
12.280000	47.879274
12.290000	47.879274
12.300000	47.879274
12.310000	47.879274
12.320000	47.879274
12.330000	47.879274
12.340000	47.879274
12.350000	47.879274
12.360000	47.879274
12.370000	47.879274
12.380000	47.879274
12.390000	47.879274
12.400000	47.879274
12.410000	47.879274
12.420000	47.879274
12.430000	47.879274
12.440000	47.879274
12.450000	47.879274
12.460000	47.879274
12.470000	47.879274
12.480000	47.879274
12.490000	47.879274
12.500000	47.416965
12.510000	47.416965
12.520000	47.416965
12.530000	47.416965
12.540000	47.416965
12.550000	47.416965
12.560000	47.416965
12.570000	47.416965
12.580000	47.416965
12.590000	47.416965
12.600000	47.416965
12.610000	47.416965
12.620000	47.416965
12.630000	47.416965
12.640000	47.416965
12.650000	47.416965
12.660000	47.416965
12.670000	47.416965
12.680000	47.416965
12.690000	47.416965
12.700000	47.416965
12.710000	47.416965
12.720000	47.416965
12.730000	47.416965
12.740000	47.416965
12.750000	47.416965
12.760000	47.416965
12.770000	47.416965
12.780000	47.416965
12.790000	47.416965
12.800000	47.416965
12.810000	47.416965
12.820000	47.416965
12.830000	47.416965
12.840000	47.416965
12.850000	47.416965
12.860000	47.416965
12.870000	47.416965
12.880000	47.416965
12.890000	47.416965
12.900000	47.416965
12.910000	47.416965
12.920000	47.416965
12.930000	47.416965
12.940000	47.416965
12.950000	47.416965
12.960000	47.416965
12.970000	47.416965
12.980000	47.416965
12.990000	47.416965
13.000000	46.961703
13.010000	46.961703
13.020000	46.961703
13.030000	46.961703
13.040000	46.961703
13.050000	46.961703
13.060000	46.961703
13.070000	46.961703
13.080000	46.961703
13.090000	46.961703
13.100000	46.961703
13.110000	46.961703
13.120000	46.961703
13.130000	46.961703
13.140000	46.961703
13.150000	46.961703
13.160000	46.961703
13.170000	46.961703
13.180000	46.961703
13.190000	46.961703
13.200000	46.961703
13.210000	46.961703
13.220000	46.961703
13.230000	46.961703
13.240000	46.961703
13.250000	46.961703
13.260000	46.961703
13.270000	46.961703
13.280000	46.961703
13.290000	46.961703
13.300000	46.961703
13.310000	46.961703
13.320000	46.961703
13.330000	46.961703
13.340000	46.961703
13.350000	46.961703
13.360000	46.961703
13.370000	46.961703
13.380000	46.961703
13.390000	46.961703
13.400000	46.961703
13.410000	46.961703
13.420000	46.961703
13.430000	46.961703
13.440000	46.961703
13.450000	46.961703
13.460000	46.961703
13.470000	46.961703
13.480000	46.961703
13.490000	46.961703
13.500000	46.511158
13.510000	46.511158
13.520000	46.511158
13.530000	46.511158
13.540000	46.511158
13.550000	46.511158
13.560000	46.511158
13.570000	46.511158
13.580000	46.511158
13.590000	46.511158
13.600000	46.511158
13.610000	46.511158
13.620000	46.511158
13.630000	46.511158
13.640000	46.511158
13.650000	46.511158
13.660000	46.511158
13.670000	46.511158
13.680000	46.511158
13.690000	46.511158
13.700000	46.511158
13.710000	46.511158
13.720000	46.511158
13.730000	46.511158
13.740000	46.511158
13.750000	46.511158
13.760000	46.511158
13.770000	46.511158
13.780000	46.511158
13.790000	46.511158
13.800000	46.511158
13.810000	46.511158
13.820000	46.511158
13.830000	46.511158
13.840000	46.511158
13.850000	46.511158
13.860000	46.511158
13.870000	46.511158
13.880000	46.511158
13.890000	46.511158
13.900000	46.511158
13.910000	46.511158
13.920000	46.511158
13.930000	46.511158
13.940000	46.511158
13.950000	46.511158
13.960000	46.511158
13.970000	46.511158
13.980000	46.511158
13.990000	46.511158
14.000000	46.067740
14.010000	46.067740
14.020000	46.067740
14.030000	46.067740
14.040000	46.067740
14.050000	46.067740
14.060000	46.067740
14.070000	46.067740
14.080000	46.067740
14.090000	46.067740
14.100000	46.067740
14.110000	46.067740
14.120000	46.067740
14.130000	46.067740
14.140000	46.067740
14.150000	46.067740
14.160000	46.067740
14.170000	46.067740
14.180000	46.067740
14.190000	46.067740
14.200000	46.067740
14.210000	46.067740
14.220000	46.067740
14.230000	46.067740
14.240000	46.067740
14.250000	46.067740
14.260000	46.067740
14.270000	46.067740
14.280000	46.067740
14.290000	46.067740
14.300000	46.067740
14.310000	46.067740
14.320000	46.067740
14.330000	46.067740
14.340000	46.067740
14.350000	46.067740
14.360000	46.067740
14.370000	46.067740
14.380000	46.067740
14.390000	46.067740
14.400000	46.067740
14.410000	46.067740
14.420000	46.067740
14.430000	46.067740
14.440000	46.067740
14.450000	46.067740
14.460000	46.067740
14.470000	46.067740
14.480000	46.067740
14.490000	46.067740
14.500000	45.630337
14.510000	45.630337
14.520000	45.630337
14.530000	45.630337
14.540000	45.630337
14.550000	45.630337
14.560000	45.630337
14.570000	45.630337
14.580000	45.630337
14.590000	45.630337
14.600000	45.630337
14.610000	45.630337
14.620000	45.630337
14.630000	45.630337
14.640000	45.630337
14.650000	45.630337
14.660000	45.630337
14.670000	45.630337
14.680000	45.630337
14.690000	45.630337
14.700000	45.630337
14.710000	45.630337
14.720000	45.630337
14.730000	45.630337
14.740000	45.630337
14.750000	45.630337
14.760000	45.630337
14.770000	45.630337
14.780000	45.630337
14.790000	45.630337
14.800000	45.630337
14.810000	45.630337
14.820000	45.630337
14.830000	45.630337
14.840000	45.630337
14.850000	45.630337
14.860000	45.630337
14.870000	45.630337
14.880000	45.630337
14.890000	45.630337
14.900000	45.630337
14.910000	45.630337
14.920000	45.630337
14.930000	45.630337
14.940000	45.630337
14.950000	45.630337
14.960000	45.630337
14.970000	45.630337
14.980000	45.630337
14.990000	45.630337
15.000000	45.200735
15.010000	45.200735
15.020000	45.200735
15.030000	45.200735
15.040000	45.200735
15.050000	45.200735
15.060000	45.200735
15.070000	45.200735
15.080000	45.200735
15.090000	45.200735
15.100000	45.200735
15.110000	45.200735
15.120000	45.200735
15.130000	45.200735
15.140000	45.200735
15.150000	45.200735
15.160000	45.200735
15.170000	45.200735
15.180000	45.200735
15.190000	45.200735
15.200000	45.200735
15.210000	45.200735
15.220000	45.200735
15.230000	45.200735
15.240000	45.200735
15.250000	45.200735
15.260000	45.200735
15.270000	45.200735
15.280000	45.200735
15.290000	45.200735
15.300000	45.200735
15.310000	45.200735
15.320000	45.200735
15.330000	45.200735
15.340000	45.200735
15.350000	45.200735
15.360000	45.200735
15.370000	45.200735
15.380000	45.200735
15.390000	45.200735
15.400000	45.200735
15.410000	45.200735
15.420000	45.200735
15.430000	45.200735
15.440000	45.200735
15.450000	45.200735
15.460000	45.200735
15.470000	45.200735
15.480000	45.200735
15.490000	45.200735
15.500000	44.783413
15.510000	44.783413
15.520000	44.783413
15.530000	44.783413
15.540000	44.783413
15.550000	44.783413
15.560000	44.783413
15.570000	44.783413
15.580000	44.783413
15.590000	44.783413
15.600000	44.783413
15.610000	44.783413
15.620000	44.783413
15.630000	44.783413
15.640000	44.783413
15.650000	44.783413
15.660000	44.783413
15.670000	44.783413
15.680000	44.783413
15.690000	44.783413
15.700000	44.783413
15.710000	44.783413
15.720000	44.783413
15.730000	44.783413
15.740000	44.783413
15.750000	44.783413
15.760000	44.783413
15.770000	44.783413
15.780000	44.783413
15.790000	44.783413
15.800000	44.783413
15.810000	44.783413
15.820000	44.783413
15.830000	44.783413
15.840000	44.783413
15.850000	44.783413
15.860000	44.783413
15.870000	44.783413
15.880000	44.783413
15.890000	44.783413
15.900000	44.783413
15.910000	44.783413
15.920000	44.783413
15.930000	44.783413
15.940000	44.783413
15.950000	44.783413
15.960000	44.783413
15.970000	44.783413
15.980000	44.783413
15.990000	44.783413
16.000000	44.377477
16.010000	44.377477
16.020000	44.377477
16.030000	44.377477
16.040000	44.377477
16.050000	44.377477
16.060000	44.377477
16.070000	44.377477
16.080000	44.377477
16.090000	44.377477
16.100000	44.377477
16.110000	44.377477
16.120000	44.377477
16.130000	44.377477
16.140000	44.377477
16.150000	44.377477
16.160000	44.377477
16.170000	44.377477
16.180000	44.377477
16.190000	44.377477
16.200000	44.377477
16.210000	44.377477
16.220000	44.377477
16.230000	44.377477
16.240000	44.377477
16.250000	44.377477
16.260000	44.377477
16.270000	44.377477
16.280000	44.377477
16.290000	44.377477
16.300000	44.377477
16.310000	44.377477
16.320000	44.377477
16.330000	44.377477
16.340000	44.377477
16.350000	44.377477
16.360000	44.377477
16.370000	44.377477
16.380000	44.377477
16.390000	44.377477
16.400000	44.377477
16.410000	44.377477
16.420000	44.377477
16.430000	44.377477
16.440000	44.377477
16.450000	44.377477
16.460000	44.377477
16.470000	44.377477
16.480000	44.377477
16.490000	44.377477
16.500000	43.975828
16.510000	43.975828
16.520000	43.975828
16.530000	43.975828
16.540000	43.975828
16.550000	43.975828
16.560000	43.975828
16.570000	43.975828
16.580000	43.975828
16.590000	43.975828
16.600000	43.975828
16.610000	43.975828
16.620000	43.975828
16.630000	43.975828
16.640000	43.975828
16.650000	43.975828
16.660000	43.975828
16.670000	43.975828
16.680000	43.975828
16.690000	43.975828
16.700000	43.975828
16.710000	43.975828
16.720000	43.975828
16.730000	43.975828
16.740000	43.975828
16.750000	43.975828
16.760000	43.975828
16.770000	43.975828
16.780000	43.975828
16.790000	43.975828
16.800000	43.975828
16.810000	43.975828
16.820000	43.975828
16.830000	43.975828
16.840000	43.975828
16.850000	43.975828
16.860000	43.975828
16.870000	43.975828
16.880000	43.975828
16.890000	43.975828
16.900000	43.975828
16.910000	43.975828
16.920000	43.975828
16.930000	43.975828
16.940000	43.975828
16.950000	43.975828
16.960000	43.975828
16.970000	43.975828
16.980000	43.975828
16.990000	43.975828
17.000000	43.588678
17.010000	43.588678
17.020000	43.588678
17.030000	43.588678
17.040000	43.588678
17.050000	43.588678
17.060000	43.588678
17.070000	43.588678
17.080000	43.588678
17.090000	43.588678
17.100000	43.588678
17.110000	43.588678
17.120000	43.588678
17.130000	43.588678
17.140000	43.588678
17.150000	43.588678
17.160000	43.588678
17.170000	43.588678
17.180000	43.588678
17.190000	43.588678
17.200000	43.588678
17.210000	43.588678
17.220000	43.588678
17.230000	43.588678
17.240000	43.588678
17.250000	43.588678
17.260000	43.588678
17.270000	43.588678
17.280000	43.588678
17.290000	43.588678
17.300000	43.588678
17.310000	43.588678
17.320000	43.588678
17.330000	43.588678
17.340000	43.588678
17.350000	43.588678
17.360000	43.588678
17.370000	43.588678
17.380000	43.588678
17.390000	43.588678
17.400000	43.588678
17.410000	43.588678
17.420000	43.588678
17.430000	43.588678
17.440000	43.588678
17.450000	43.588678
17.460000	43.588678
17.470000	43.588678
17.480000	43.588678
17.490000	43.588678
17.500000	43.213458
17.510000	43.213458
17.520000	43.213458
17.530000	43.213458
17.540000	43.213458
17.550000	43.213458
17.560000	43.213458
17.570000	43.213458
17.580000	43.213458
17.590000	43.213458
17.600000	43.213458
17.610000	43.213458
17.620000	43.213458
17.630000	43.213458
17.640000	43.213458
17.650000	43.213458
17.660000	43.213458
17.670000	43.213458
17.680000	43.213458
17.690000	43.213458
