LabVIEW Measurement	
Writer_Version	2
Reader_Version	2
Separator	Tab
Decimal_Separator	.
Multi_Headings	No
X_Columns	One
Time_Pref	Absolute
Operator	biomech-dyno
Date	2023/05/23
Time	16:26:31.1792034999998606061
***End_of_Header***	
	
Channels	1	
Samples	10	
Date	2023/05/23	
Time	17:52:21.3760912999997586588	
X_Dimension	Time	
X0	0.0000000000000000E+0	
Delta_X	0.010000	
***End_of_Header***		
X_Value	Untitled	Comment
0.000000	25.131493
0.010000	25.131493
0.020000	25.131493
0.030000	25.131493
0.040000	25.131493
0.050000	25.131493
0.060000	25.131493
0.070000	25.131493
0.080000	25.131493
0.090000	25.131493
0.100000	25.131493
0.110000	25.131493
0.120000	25.131493
0.130000	25.131493
0.140000	25.131493
0.150000	25.131493
0.160000	25.131493
0.170000	25.131493
0.180000	25.131493
0.190000	25.131493
0.200000	25.131493
0.210000	25.131493
0.220000	25.131493
0.230000	25.131493
0.240000	25.131493
0.250000	25.131493
0.260000	25.131493
0.270000	25.131493
0.280000	25.131493
0.290000	25.131493
0.300000	25.131493
0.310000	25.131493
0.320000	25.131493
0.330000	25.131493
0.340000	25.131493
0.350000	25.131493
0.360000	25.131493
0.370000	25.131493
0.380000	25.131493
0.390000	25.131493
0.400000	25.131493
0.410000	25.131493
0.420000	25.131493
0.430000	25.131493
0.440000	25.131493
0.450000	25.131493
0.460000	25.131493
0.470000	25.131493
0.480000	25.131493
0.490000	25.131493
0.500000	25.180729
0.510000	25.180729
0.520000	25.180729
0.530000	25.180729
0.540000	25.180729
0.550000	25.180729
0.560000	25.180729
0.570000	25.180729
0.580000	25.180729
0.590000	25.180729
0.600000	25.180729
0.610000	25.180729
0.620000	25.180729
0.630000	25.180729
0.640000	25.180729
0.650000	25.180729
0.660000	25.180729
0.670000	25.180729
0.680000	25.180729
0.690000	25.180729
0.700000	25.180729
0.710000	25.180729
0.720000	25.180729
0.730000	25.180729
0.740000	25.180729
0.750000	25.180729
0.760000	25.180729
0.770000	25.180729
0.780000	25.180729
0.790000	25.180729
0.800000	25.180729
0.810000	25.180729
0.820000	25.180729
0.830000	25.180729
0.840000	25.180729
0.850000	25.180729
0.860000	25.180729
0.870000	25.180729
0.880000	25.180729
0.890000	25.180729
0.900000	25.180729
0.910000	25.180729
0.920000	25.180729
0.930000	25.180729
0.940000	25.180729
0.950000	25.180729
0.960000	25.180729
0.970000	25.180729
0.980000	25.180729
0.990000	25.180729
1.000000	25.724529
1.010000	25.724529
1.020000	25.724529
1.030000	25.724529
1.040000	25.724529
1.050000	25.724529
1.060000	25.724529
1.070000	25.724529
1.080000	25.724529
1.090000	25.724529
1.100000	25.724529
1.110000	25.724529
1.120000	25.724529
1.130000	25.724529
1.140000	25.724529
1.150000	25.724529
1.160000	25.724529
1.170000	25.724529
1.180000	25.724529
1.190000	25.724529
1.200000	25.724529
1.210000	25.724529
1.220000	25.724529
1.230000	25.724529
1.240000	25.724529
1.250000	25.724529
1.260000	25.724529
1.270000	25.724529
1.280000	25.724529
1.290000	25.724529
1.300000	25.724529
1.310000	25.724529
1.320000	25.724529
1.330000	25.724529
1.340000	25.724529
1.350000	25.724529
1.360000	25.724529
1.370000	25.724529
1.380000	25.724529
1.390000	25.724529
1.400000	25.724529
1.410000	25.724529
1.420000	25.724529
1.430000	25.724529
1.440000	25.724529
1.450000	25.724529
1.460000	25.724529
1.470000	25.724529
1.480000	25.724529
1.490000	25.724529
1.500000	27.008285
1.510000	27.008285
1.520000	27.008285
1.530000	27.008285
1.540000	27.008285
1.550000	27.008285
1.560000	27.008285
1.570000	27.008285
1.580000	27.008285
1.590000	27.008285
1.600000	27.008285
1.610000	27.008285
1.620000	27.008285
1.630000	27.008285
1.640000	27.008285
1.650000	27.008285
1.660000	27.008285
1.670000	27.008285
1.680000	27.008285
1.690000	27.008285
1.700000	27.008285
1.710000	27.008285
1.720000	27.008285
1.730000	27.008285
1.740000	27.008285
1.750000	27.008285
1.760000	27.008285
1.770000	27.008285
1.780000	27.008285
1.790000	27.008285
1.800000	27.008285
1.810000	27.008285
1.820000	27.008285
1.830000	27.008285
1.840000	27.008285
1.850000	27.008285
1.860000	27.008285
1.870000	27.008285
1.880000	27.008285
1.890000	27.008285
1.900000	27.008285
1.910000	27.008285
1.920000	27.008285
1.930000	27.008285
1.940000	27.008285
1.950000	27.008285
1.960000	27.008285
1.970000	27.008285
1.980000	27.008285
1.990000	27.008285
2.000000	28.904933
2.010000	28.904933
2.020000	28.904933
2.030000	28.904933
2.040000	28.904933
2.050000	28.904933
2.060000	28.904933
2.070000	28.904933
2.080000	28.904933
2.090000	28.904933
2.100000	28.904933
2.110000	28.904933
2.120000	28.904933
2.130000	28.904933
2.140000	28.904933
2.150000	28.904933
2.160000	28.904933
2.170000	28.904933
2.180000	28.904933
2.190000	28.904933
2.200000	28.904933
2.210000	28.904933
2.220000	28.904933
2.230000	28.904933
2.240000	28.904933
2.250000	28.904933
2.260000	28.904933
2.270000	28.904933
2.280000	28.904933
2.290000	28.904933
2.300000	28.904933
2.310000	28.904933
2.320000	28.904933
2.330000	28.904933
2.340000	28.904933
2.350000	28.904933
2.360000	28.904933
2.370000	28.904933
2.380000	28.904933
2.390000	28.904933
2.400000	28.904933
2.410000	28.904933
2.420000	28.904933
2.430000	28.904933
2.440000	28.904933
2.450000	28.904933
2.460000	28.904933
2.470000	28.904933
2.480000	28.904933
2.490000	28.904933
2.500000	31.260907
2.510000	31.260907
2.520000	31.260907
2.530000	31.260907
2.540000	31.260907
2.550000	31.260907
2.560000	31.260907
2.570000	31.260907
2.580000	31.260907
2.590000	31.260907
2.600000	31.260907
2.610000	31.260907
2.620000	31.260907
2.630000	31.260907
2.640000	31.260907
2.650000	31.260907
2.660000	31.260907
2.670000	31.260907
2.680000	31.260907
2.690000	31.260907
2.700000	31.260907
2.710000	31.260907
2.720000	31.260907
2.730000	31.260907
2.740000	31.260907
2.750000	31.260907
2.760000	31.260907
2.770000	31.260907
2.780000	31.260907
2.790000	31.260907
2.800000	31.260907
2.810000	31.260907
2.820000	31.260907
2.830000	31.260907
2.840000	31.260907
2.850000	31.260907
2.860000	31.260907
2.870000	31.260907
2.880000	31.260907
2.890000	31.260907
2.900000	31.260907
2.910000	31.260907
2.920000	31.260907
2.930000	31.260907
2.940000	31.260907
2.950000	31.260907
2.960000	31.260907
2.970000	31.260907
2.980000	31.260907
2.990000	31.260907
3.000000	33.984163
3.010000	33.984163
3.020000	33.984163
3.030000	33.984163
3.040000	33.984163
3.050000	33.984163
3.060000	33.984163
3.070000	33.984163
3.080000	33.984163
3.090000	33.984163
3.100000	33.984163
3.110000	33.984163
3.120000	33.984163
3.130000	33.984163
3.140000	33.984163
3.150000	33.984163
3.160000	33.984163
3.170000	33.984163
3.180000	33.984163
3.190000	33.984163
3.200000	33.984163
3.210000	33.984163
3.220000	33.984163
3.230000	33.984163
3.240000	33.984163
3.250000	33.984163
3.260000	33.984163
3.270000	33.984163
3.280000	33.984163
3.290000	33.984163
3.300000	33.984163
3.310000	33.984163
3.320000	33.984163
3.330000	33.984163
3.340000	33.984163
3.350000	33.984163
3.360000	33.984163
3.370000	33.984163
3.380000	33.984163
3.390000	33.984163
3.400000	33.984163
3.410000	33.984163
3.420000	33.984163
3.430000	33.984163
3.440000	33.984163
3.450000	33.984163
3.460000	33.984163
3.470000	33.984163
3.480000	33.984163
3.490000	33.984163
3.500000	36.893463
3.510000	36.893463
3.520000	36.893463
3.530000	36.893463
3.540000	36.893463
3.550000	36.893463
3.560000	36.893463
3.570000	36.893463
3.580000	36.893463
3.590000	36.893463
3.600000	36.893463
3.610000	36.893463
3.620000	36.893463
3.630000	36.893463
3.640000	36.893463
3.650000	36.893463
3.660000	36.893463
3.670000	36.893463
3.680000	36.893463
3.690000	36.893463
3.700000	36.893463
3.710000	36.893463
3.720000	36.893463
3.730000	36.893463
3.740000	36.893463
3.750000	36.893463
3.760000	36.893463
3.770000	36.893463
3.780000	36.893463
3.790000	36.893463
3.800000	36.893463
3.810000	36.893463
3.820000	36.893463
3.830000	36.893463
3.840000	36.893463
3.850000	36.893463
3.860000	36.893463
3.870000	36.893463
3.880000	36.893463
3.890000	36.893463
3.900000	36.893463
3.910000	36.893463
3.920000	36.893463
3.930000	36.893463
3.940000	36.893463
3.950000	36.893463
3.960000	36.893463
3.970000	36.893463
3.980000	36.893463
3.990000	36.893463
4.000000	39.416506
4.010000	39.416506
4.020000	39.416506
4.030000	39.416506
4.040000	39.416506
4.050000	39.416506
4.060000	39.416506
4.070000	39.416506
4.080000	39.416506
4.090000	39.416506
4.100000	39.416506
4.110000	39.416506
4.120000	39.416506
4.130000	39.416506
4.140000	39.416506
4.150000	39.416506
4.160000	39.416506
4.170000	39.416506
4.180000	39.416506
4.190000	39.416506
4.200000	39.416506
4.210000	39.416506
4.220000	39.416506
4.230000	39.416506
4.240000	39.416506
4.250000	39.416506
4.260000	39.416506
4.270000	39.416506
4.280000	39.416506
4.290000	39.416506
4.300000	39.416506
4.310000	39.416506
4.320000	39.416506
4.330000	39.416506
4.340000	39.416506
4.350000	39.416506
4.360000	39.416506
4.370000	39.416506
4.380000	39.416506
4.390000	39.416506
4.400000	39.416506
4.410000	39.416506
4.420000	39.416506
4.430000	39.416506
4.440000	39.416506
4.450000	39.416506
4.460000	39.416506
4.470000	39.416506
4.480000	39.416506
4.490000	39.416506
4.500000	41.312400
4.510000	41.312400
4.520000	41.312400
4.530000	41.312400
4.540000	41.312400
4.550000	41.312400
4.560000	41.312400
4.570000	41.312400
4.580000	41.312400
4.590000	41.312400
4.600000	41.312400
4.610000	41.312400
4.620000	41.312400
4.630000	41.312400
4.640000	41.312400
4.650000	41.312400
4.660000	41.312400
4.670000	41.312400
4.680000	41.312400
4.690000	41.312400
4.700000	41.312400
4.710000	41.312400
4.720000	41.312400
4.730000	41.312400
4.740000	41.312400
4.750000	41.312400
4.760000	41.312400
4.770000	41.312400
4.780000	41.312400
4.790000	41.312400
4.800000	41.312400
4.810000	41.312400
4.820000	41.312400
4.830000	41.312400
4.840000	41.312400
4.850000	41.312400
4.860000	41.312400
4.870000	41.312400
4.880000	41.312400
4.890000	41.312400
4.900000	41.312400
4.910000	41.312400
4.920000	41.312400
4.930000	41.312400
4.940000	41.312400
4.950000	41.312400
4.960000	41.312400
4.970000	41.312400
4.980000	41.312400
4.990000	41.312400
5.000000	42.668803
5.010000	42.668803
5.020000	42.668803
5.030000	42.668803
5.040000	42.668803
5.050000	42.668803
5.060000	42.668803
5.070000	42.668803
5.080000	42.668803
5.090000	42.668803
5.100000	42.668803
5.110000	42.668803
5.120000	42.668803
5.130000	42.668803
5.140000	42.668803
5.150000	42.668803
5.160000	42.668803
5.170000	42.668803
5.180000	42.668803
5.190000	42.668803
5.200000	42.668803
5.210000	42.668803
5.220000	42.668803
5.230000	42.668803
5.240000	42.668803
5.250000	42.668803
5.260000	42.668803
5.270000	42.668803
5.280000	42.668803
5.290000	42.668803
5.300000	42.668803
5.310000	42.668803
5.320000	42.668803
5.330000	42.668803
5.340000	42.668803
5.350000	42.668803
5.360000	42.668803
5.370000	42.668803
5.380000	42.668803
5.390000	42.668803
5.400000	42.668803
5.410000	42.668803
5.420000	42.668803
5.430000	42.668803
5.440000	42.668803
5.450000	42.668803
5.460000	42.668803
5.470000	42.668803
5.480000	42.668803
5.490000	42.668803
5.500000	43.609301
5.510000	43.609301
5.520000	43.609301
5.530000	43.609301
5.540000	43.609301
5.550000	43.609301
5.560000	43.609301
5.570000	43.609301
5.580000	43.609301
5.590000	43.609301
5.600000	43.609301
5.610000	43.609301
5.620000	43.609301
5.630000	43.609301
5.640000	43.609301
5.650000	43.609301
5.660000	43.609301
5.670000	43.609301
5.680000	43.609301
5.690000	43.609301
5.700000	43.609301
5.710000	43.609301
5.720000	43.609301
5.730000	43.609301
5.740000	43.609301
5.750000	43.609301
5.760000	43.609301
5.770000	43.609301
5.780000	43.609301
5.790000	43.609301
5.800000	43.609301
5.810000	43.609301
5.820000	43.609301
5.830000	43.609301
5.840000	43.609301
5.850000	43.609301
5.860000	43.609301
5.870000	43.609301
5.880000	43.609301
5.890000	43.609301
5.900000	43.609301
5.910000	43.609301
5.920000	43.609301
5.930000	43.609301
5.940000	43.609301
5.950000	43.609301
5.960000	43.609301
5.970000	43.609301
5.980000	43.609301
5.990000	43.609301
6.000000	44.232984
6.010000	44.232984
6.020000	44.232984
6.030000	44.232984
6.040000	44.232984
6.050000	44.232984
6.060000	44.232984
6.070000	44.232984
6.080000	44.232984
6.090000	44.232984
6.100000	44.232984
6.110000	44.232984
6.120000	44.232984
6.130000	44.232984
6.140000	44.232984
6.150000	44.232984
6.160000	44.232984
6.170000	44.232984
6.180000	44.232984
6.190000	44.232984
6.200000	44.232984
6.210000	44.232984
6.220000	44.232984
6.230000	44.232984
6.240000	44.232984
6.250000	44.232984
6.260000	44.232984
6.270000	44.232984
6.280000	44.232984
6.290000	44.232984
6.300000	44.232984
6.310000	44.232984
6.320000	44.232984
6.330000	44.232984
6.340000	44.232984
6.350000	44.232984
6.360000	44.232984
6.370000	44.232984
6.380000	44.232984
6.390000	44.232984
6.400000	44.232984
6.410000	44.232984
6.420000	44.232984
6.430000	44.232984
6.440000	44.232984
6.450000	44.232984
6.460000	44.232984
6.470000	44.232984
6.480000	44.232984
6.490000	44.232984
6.500000	44.606640
6.510000	44.606640
6.520000	44.606640
6.530000	44.606640
6.540000	44.606640
6.550000	44.606640
6.560000	44.606640
6.570000	44.606640
6.580000	44.606640
6.590000	44.606640
6.600000	44.606640
6.610000	44.606640
6.620000	44.606640
6.630000	44.606640
6.640000	44.606640
6.650000	44.606640
6.660000	44.606640
6.670000	44.606640
6.680000	44.606640
6.690000	44.606640
6.700000	44.606640
6.710000	44.606640
6.720000	44.606640
6.730000	44.606640
6.740000	44.606640
6.750000	44.606640
6.760000	44.606640
6.770000	44.606640
6.780000	44.606640
6.790000	44.606640
6.800000	44.606640
6.810000	44.606640
6.820000	44.606640
6.830000	44.606640
6.840000	44.606640
6.850000	44.606640
6.860000	44.606640
6.870000	44.606640
6.880000	44.606640
6.890000	44.606640
6.900000	44.606640
6.910000	44.606640
6.920000	44.606640
6.930000	44.606640
6.940000	44.606640
6.950000	44.606640
6.960000	44.606640
6.970000	44.606640
6.980000	44.606640
6.990000	44.606640
7.000000	44.795440
7.010000	44.795440
7.020000	44.795440
7.030000	44.795440
7.040000	44.795440
7.050000	44.795440
7.060000	44.795440
7.070000	44.795440
7.080000	44.795440
7.090000	44.795440
7.100000	44.795440
7.110000	44.795440
7.120000	44.795440
7.130000	44.795440
7.140000	44.795440
7.150000	44.795440
7.160000	44.795440
7.170000	44.795440
7.180000	44.795440
7.190000	44.795440
7.200000	44.795440
7.210000	44.795440
7.220000	44.795440
7.230000	44.795440
7.240000	44.795440
7.250000	44.795440
7.260000	44.795440
7.270000	44.795440
7.280000	44.795440
7.290000	44.795440
7.300000	44.795440
7.310000	44.795440
7.320000	44.795440
7.330000	44.795440
7.340000	44.795440
7.350000	44.795440
7.360000	44.795440
7.370000	44.795440
7.380000	44.795440
7.390000	44.795440
7.400000	44.795440
7.410000	44.795440
7.420000	44.795440
7.430000	44.795440
7.440000	44.795440
7.450000	44.795440
7.460000	44.795440
7.470000	44.795440
7.480000	44.795440
7.490000	44.795440
7.500000	44.851617
7.510000	44.851617
7.520000	44.851617
7.530000	44.851617
7.540000	44.851617
7.550000	44.851617
7.560000	44.851617
7.570000	44.851617
7.580000	44.851617
7.590000	44.851617
7.600000	44.851617
7.610000	44.851617
7.620000	44.851617
7.630000	44.851617
7.640000	44.851617
7.650000	44.851617
7.660000	44.851617
7.670000	44.851617
7.680000	44.851617
7.690000	44.851617
7.700000	44.851617
7.710000	44.851617
7.720000	44.851617
7.730000	44.851617
7.740000	44.851617
7.750000	44.851617
7.760000	44.851617
7.770000	44.851617
7.780000	44.851617
7.790000	44.851617
7.800000	44.851617
7.810000	44.851617
7.820000	44.851617
7.830000	44.851617
7.840000	44.851617
7.850000	44.851617
7.860000	44.851617
7.870000	44.851617
7.880000	44.851617
7.890000	44.851617
7.900000	44.851617
7.910000	44.851617
7.920000	44.851617
7.930000	44.851617
7.940000	44.851617
7.950000	44.851617
7.960000	44.851617
7.970000	44.851617
7.980000	44.851617
7.990000	44.851617
8.000000	44.790227
8.010000	44.790227
8.020000	44.790227
8.030000	44.790227
8.040000	44.790227
8.050000	44.790227
8.060000	44.790227
8.070000	44.790227
8.080000	44.790227
8.090000	44.790227
8.100000	44.790227
8.110000	44.790227
8.120000	44.790227
8.130000	44.790227
8.140000	44.790227
8.150000	44.790227
8.160000	44.790227
8.170000	44.790227
8.180000	44.790227
8.190000	44.790227
8.200000	44.790227
8.210000	44.790227
8.220000	44.790227
8.230000	44.790227
8.240000	44.790227
8.250000	44.790227
8.260000	44.790227
8.270000	44.790227
8.280000	44.790227
8.290000	44.790227
8.300000	44.790227
8.310000	44.790227
8.320000	44.790227
8.330000	44.790227
8.340000	44.790227
8.350000	44.790227
8.360000	44.790227
8.370000	44.790227
8.380000	44.790227
8.390000	44.790227
8.400000	44.790227
8.410000	44.790227
8.420000	44.790227
8.430000	44.790227
8.440000	44.790227
8.450000	44.790227
8.460000	44.790227
8.470000	44.790227
8.480000	44.790227
8.490000	44.790227
8.500000	44.650921
8.510000	44.650921
8.520000	44.650921
8.530000	44.650921
8.540000	44.650921
8.550000	44.650921
8.560000	44.650921
8.570000	44.650921
8.580000	44.650921
8.590000	44.650921
8.600000	44.650921
8.610000	44.650921
8.620000	44.650921
8.630000	44.650921
8.640000	44.650921
8.650000	44.650921
8.660000	44.650921
8.670000	44.650921
8.680000	44.650921
8.690000	44.650921
8.700000	44.650921
8.710000	44.650921
8.720000	44.650921
8.730000	44.650921
8.740000	44.650921
8.750000	44.650921
8.760000	44.650921
8.770000	44.650921
8.780000	44.650921
8.790000	44.650921
8.800000	44.650921
8.810000	44.650921
8.820000	44.650921
8.830000	44.650921
8.840000	44.650921
8.850000	44.650921
8.860000	44.650921
8.870000	44.650921
8.880000	44.650921
8.890000	44.650921
8.900000	44.650921
8.910000	44.650921
8.920000	44.650921
8.930000	44.650921
8.940000	44.650921
8.950000	44.650921
8.960000	44.650921
8.970000	44.650921
8.980000	44.650921
8.990000	44.650921
9.000000	44.443859
9.010000	44.443859
9.020000	44.443859
9.030000	44.443859
9.040000	44.443859
9.050000	44.443859
9.060000	44.443859
9.070000	44.443859
9.080000	44.443859
9.090000	44.443859
9.100000	44.443859
9.110000	44.443859
9.120000	44.443859
9.130000	44.443859
9.140000	44.443859
9.150000	44.443859
9.160000	44.443859
9.170000	44.443859
9.180000	44.443859
9.190000	44.443859
9.200000	44.443859
9.210000	44.443859
9.220000	44.443859
9.230000	44.443859
9.240000	44.443859
9.250000	44.443859
9.260000	44.443859
9.270000	44.443859
9.280000	44.443859
9.290000	44.443859
9.300000	44.443859
9.310000	44.443859
9.320000	44.443859
9.330000	44.443859
9.340000	44.443859
9.350000	44.443859
9.360000	44.443859
9.370000	44.443859
9.380000	44.443859
9.390000	44.443859
9.400000	44.443859
9.410000	44.443859
9.420000	44.443859
9.430000	44.443859
9.440000	44.443859
9.450000	44.443859
9.460000	44.443859
9.470000	44.443859
9.480000	44.443859
9.490000	44.443859
9.500000	44.187759
9.510000	44.187759
9.520000	44.187759
9.530000	44.187759
9.540000	44.187759
9.550000	44.187759
9.560000	44.187759
9.570000	44.187759
9.580000	44.187759
9.590000	44.187759
9.600000	44.187759
9.610000	44.187759
9.620000	44.187759
9.630000	44.187759
9.640000	44.187759
9.650000	44.187759
9.660000	44.187759
9.670000	44.187759
9.680000	44.187759
9.690000	44.187759
9.700000	44.187759
9.710000	44.187759
9.720000	44.187759
9.730000	44.187759
9.740000	44.187759
9.750000	44.187759
9.760000	44.187759
9.770000	44.187759
9.780000	44.187759
9.790000	44.187759
9.800000	44.187759
9.810000	44.187759
9.820000	44.187759
9.830000	44.187759
9.840000	44.187759
9.850000	44.187759
9.860000	44.187759
9.870000	44.187759
9.880000	44.187759
9.890000	44.187759
9.900000	44.187759
9.910000	44.187759
9.920000	44.187759
9.930000	44.187759
9.940000	44.187759
9.950000	44.187759
9.960000	44.187759
9.970000	44.187759
9.980000	44.187759
9.990000	44.187759
10.000000	43.897673
10.010000	43.897673
10.020000	43.897673
10.030000	43.897673
10.040000	43.897673
10.050000	43.897673
10.060000	43.897673
10.070000	43.897673
10.080000	43.897673
10.090000	43.897673
10.100000	43.897673
10.110000	43.897673
10.120000	43.897673
10.130000	43.897673
10.140000	43.897673
10.150000	43.897673
10.160000	43.897673
10.170000	43.897673
10.180000	43.897673
10.190000	43.897673
10.200000	43.897673
10.210000	43.897673
10.220000	43.897673
10.230000	43.897673
10.240000	43.897673
10.250000	43.897673
10.260000	43.897673
10.270000	43.897673
10.280000	43.897673
10.290000	43.897673
10.300000	43.897673
10.310000	43.897673
10.320000	43.897673
10.330000	43.897673
10.340000	43.897673
10.350000	43.897673
10.360000	43.897673
10.370000	43.897673
10.380000	43.897673
10.390000	43.897673
10.400000	43.897673
10.410000	43.897673
10.420000	43.897673
10.430000	43.897673
10.440000	43.897673
10.450000	43.897673
10.460000	43.897673
10.470000	43.897673
10.480000	43.897673
10.490000	43.897673
10.500000	43.582657
10.510000	43.582657
10.520000	43.582657
10.530000	43.582657
10.540000	43.582657
10.550000	43.582657
10.560000	43.582657
10.570000	43.582657
10.580000	43.582657
10.590000	43.582657
10.600000	43.582657
10.610000	43.582657
10.620000	43.582657
10.630000	43.582657
10.640000	43.582657
10.650000	43.582657
10.660000	43.582657
10.670000	43.582657
10.680000	43.582657
10.690000	43.582657
10.700000	43.582657
10.710000	43.582657
10.720000	43.582657
10.730000	43.582657
10.740000	43.582657
10.750000	43.582657
10.760000	43.582657
10.770000	43.582657
10.780000	43.582657
10.790000	43.582657
10.800000	43.582657
10.810000	43.582657
10.820000	43.582657
10.830000	43.582657
10.840000	43.582657
10.850000	43.582657
10.860000	43.582657
10.870000	43.582657
10.880000	43.582657
10.890000	43.582657
10.900000	43.582657
10.910000	43.582657
10.920000	43.582657
10.930000	43.582657
10.940000	43.582657
10.950000	43.582657
10.960000	43.582657
10.970000	43.582657
10.980000	43.582657
10.990000	43.582657
11.000000	43.253887
11.010000	43.253887
11.020000	43.253887
11.030000	43.253887
11.040000	43.253887
11.050000	43.253887
11.060000	43.253887
11.070000	43.253887
11.080000	43.253887
11.090000	43.253887
11.100000	43.253887
11.110000	43.253887
11.120000	43.253887
11.130000	43.253887
11.140000	43.253887
11.150000	43.253887
11.160000	43.253887
11.170000	43.253887
11.180000	43.253887
11.190000	43.253887
11.200000	43.253887
11.210000	43.253887
11.220000	43.253887
11.230000	43.253887
11.240000	43.253887
11.250000	43.253887
11.260000	43.253887
11.270000	43.253887
11.280000	43.253887
11.290000	43.253887
11.300000	43.253887
11.310000	43.253887
11.320000	43.253887
11.330000	43.253887
11.340000	43.253887
11.350000	43.253887
11.360000	43.253887
11.370000	43.253887
11.380000	43.253887
11.390000	43.253887
11.400000	43.253887
11.410000	43.253887
11.420000	43.253887
11.430000	43.253887
11.440000	43.253887
11.450000	43.253887
11.460000	43.253887
11.470000	43.253887
11.480000	43.253887
11.490000	43.253887
11.500000	42.917114
11.510000	42.917114
11.520000	42.917114
11.530000	42.917114
11.540000	42.917114
11.550000	42.917114
11.560000	42.917114
11.570000	42.917114
11.580000	42.917114
11.590000	42.917114
11.600000	42.917114
11.610000	42.917114
11.620000	42.917114
11.630000	42.917114
11.640000	42.917114
11.650000	42.917114
11.660000	42.917114
11.670000	42.917114
11.680000	42.917114
11.690000	42.917114
11.700000	42.917114
11.710000	42.917114
11.720000	42.917114
11.730000	42.917114
11.740000	42.917114
11.750000	42.917114
11.760000	42.917114
11.770000	42.917114
11.780000	42.917114
11.790000	42.917114
11.800000	42.917114
11.810000	42.917114
11.820000	42.917114
11.830000	42.917114
11.840000	42.917114
11.850000	42.917114
11.860000	42.917114
11.870000	42.917114
11.880000	42.917114
11.890000	42.917114
11.900000	42.917114
11.910000	42.917114
11.920000	42.917114
11.930000	42.917114
11.940000	42.917114
11.950000	42.917114
11.960000	42.917114
11.970000	42.917114
11.980000	42.917114
11.990000	42.917114
12.000000	42.578182
12.010000	42.578182
12.020000	42.578182
12.030000	42.578182
12.040000	42.578182
12.050000	42.578182
12.060000	42.578182
12.070000	42.578182
12.080000	42.578182
12.090000	42.578182
12.100000	42.578182
12.110000	42.578182
12.120000	42.578182
12.130000	42.578182
12.140000	42.578182
12.150000	42.578182
12.160000	42.578182
12.170000	42.578182
12.180000	42.578182
12.190000	42.578182
12.200000	42.578182
12.210000	42.578182
12.220000	42.578182
12.230000	42.578182
12.240000	42.578182
12.250000	42.578182
12.260000	42.578182
12.270000	42.578182
12.280000	42.578182
12.290000	42.578182
12.300000	42.578182
12.310000	42.578182
12.320000	42.578182
12.330000	42.578182
12.340000	42.578182
12.350000	42.578182
12.360000	42.578182
12.370000	42.578182
12.380000	42.578182
12.390000	42.578182
12.400000	42.578182
12.410000	42.578182
12.420000	42.578182
12.430000	42.578182
12.440000	42.578182
12.450000	42.578182
12.460000	42.578182
12.470000	42.578182
12.480000	42.578182
12.490000	42.578182
12.500000	42.227695
12.510000	42.227695
12.520000	42.227695
12.530000	42.227695
12.540000	42.227695
12.550000	42.227695
12.560000	42.227695
12.570000	42.227695
12.580000	42.227695
12.590000	42.227695
12.600000	42.227695
12.610000	42.227695
12.620000	42.227695
12.630000	42.227695
12.640000	42.227695
12.650000	42.227695
12.660000	42.227695
12.670000	42.227695
12.680000	42.227695
12.690000	42.227695
12.700000	42.227695
12.710000	42.227695
12.720000	42.227695
12.730000	42.227695
12.740000	42.227695
12.750000	42.227695
12.760000	42.227695
12.770000	42.227695
12.780000	42.227695
12.790000	42.227695
12.800000	42.227695
12.810000	42.227695
12.820000	42.227695
12.830000	42.227695
12.840000	42.227695
12.850000	42.227695
12.860000	42.227695
12.870000	42.227695
12.880000	42.227695
12.890000	42.227695
12.900000	42.227695
12.910000	42.227695
12.920000	42.227695
12.930000	42.227695
12.940000	42.227695
12.950000	42.227695
12.960000	42.227695
12.970000	42.227695
12.980000	42.227695
12.990000	42.227695
13.000000	41.871016
13.010000	41.871016
13.020000	41.871016
13.030000	41.871016
13.040000	41.871016
13.050000	41.871016
13.060000	41.871016
13.070000	41.871016
13.080000	41.871016
13.090000	41.871016
13.100000	41.871016
13.110000	41.871016
13.120000	41.871016
13.130000	41.871016
13.140000	41.871016
13.150000	41.871016
13.160000	41.871016
13.170000	41.871016
13.180000	41.871016
13.190000	41.871016
13.200000	41.871016
13.210000	41.871016
13.220000	41.871016
13.230000	41.871016
13.240000	41.871016
13.250000	41.871016
13.260000	41.871016
13.270000	41.871016
13.280000	41.871016
13.290000	41.871016
13.300000	41.871016
13.310000	41.871016
13.320000	41.871016
13.330000	41.871016
13.340000	41.871016
13.350000	41.871016
13.360000	41.871016
13.370000	41.871016
13.380000	41.871016
13.390000	41.871016
13.400000	41.871016
13.410000	41.871016
13.420000	41.871016
13.430000	41.871016
13.440000	41.871016
13.450000	41.871016
13.460000	41.871016
13.470000	41.871016
13.480000	41.871016
13.490000	41.871016
13.500000	41.525348
13.510000	41.525348
13.520000	41.525348
13.530000	41.525348
13.540000	41.525348
13.550000	41.525348
13.560000	41.525348
13.570000	41.525348
13.580000	41.525348
13.590000	41.525348
13.600000	41.525348
13.610000	41.525348
13.620000	41.525348
13.630000	41.525348
13.640000	41.525348
13.650000	41.525348
13.660000	41.525348
13.670000	41.525348
13.680000	41.525348
13.690000	41.525348
13.700000	41.525348
13.710000	41.525348
13.720000	41.525348
13.730000	41.525348
13.740000	41.525348
13.750000	41.525348
13.760000	41.525348
13.770000	41.525348
13.780000	41.525348
13.790000	41.525348
13.800000	41.525348
13.810000	41.525348
13.820000	41.525348
13.830000	41.525348
13.840000	41.525348
13.850000	41.525348
13.860000	41.525348
13.870000	41.525348
13.880000	41.525348
13.890000	41.525348
13.900000	41.525348
13.910000	41.525348
13.920000	41.525348
13.930000	41.525348
13.940000	41.525348
13.950000	41.525348
13.960000	41.525348
13.970000	41.525348
13.980000	41.525348
13.990000	41.525348
14.000000	41.188787
14.010000	41.188787
14.020000	41.188787
14.030000	41.188787
14.040000	41.188787
14.050000	41.188787
14.060000	41.188787
14.070000	41.188787
14.080000	41.188787
14.090000	41.188787
14.100000	41.188787
14.110000	41.188787
14.120000	41.188787
14.130000	41.188787
14.140000	41.188787
14.150000	41.188787
14.160000	41.188787
14.170000	41.188787
14.180000	41.188787
14.190000	41.188787
14.200000	41.188787
14.210000	41.188787
14.220000	41.188787
14.230000	41.188787
14.240000	41.188787
14.250000	41.188787
14.260000	41.188787
14.270000	41.188787
14.280000	41.188787
14.290000	41.188787
14.300000	41.188787
14.310000	41.188787
14.320000	41.188787
14.330000	41.188787
14.340000	41.188787
14.350000	41.188787
14.360000	41.188787
14.370000	41.188787
14.380000	41.188787
14.390000	41.188787
14.400000	41.188787
14.410000	41.188787
14.420000	41.188787
14.430000	41.188787
14.440000	41.188787
14.450000	41.188787
14.460000	41.188787
14.470000	41.188787
14.480000	41.188787
14.490000	41.188787
14.500000	40.851662
14.510000	40.851662
14.520000	40.851662
14.530000	40.851662
14.540000	40.851662
14.550000	40.851662
14.560000	40.851662
14.570000	40.851662
14.580000	40.851662
14.590000	40.851662
14.600000	40.851662
14.610000	40.851662
14.620000	40.851662
14.630000	40.851662
14.640000	40.851662
14.650000	40.851662
14.660000	40.851662
14.670000	40.851662
14.680000	40.851662
14.690000	40.851662
14.700000	40.851662
14.710000	40.851662
14.720000	40.851662
14.730000	40.851662
14.740000	40.851662
14.750000	40.851662
14.760000	40.851662
14.770000	40.851662
14.780000	40.851662
14.790000	40.851662
14.800000	40.851662
14.810000	40.851662
14.820000	40.851662
14.830000	40.851662
14.840000	40.851662
14.850000	40.851662
14.860000	40.851662
14.870000	40.851662
14.880000	40.851662
14.890000	40.851662
14.900000	40.851662
14.910000	40.851662
14.920000	40.851662
14.930000	40.851662
14.940000	40.851662
14.950000	40.851662
14.960000	40.851662
14.970000	40.851662
14.980000	40.851662
14.990000	40.851662
15.000000	40.519737
15.010000	40.519737
15.020000	40.519737
15.030000	40.519737
15.040000	40.519737
15.050000	40.519737
15.060000	40.519737
15.070000	40.519737
15.080000	40.519737
15.090000	40.519737
15.100000	40.519737
15.110000	40.519737
15.120000	40.519737
15.130000	40.519737
15.140000	40.519737
15.150000	40.519737
15.160000	40.519737
15.170000	40.519737
15.180000	40.519737
15.190000	40.519737
15.200000	40.519737
15.210000	40.519737
15.220000	40.519737
15.230000	40.519737
15.240000	40.519737
15.250000	40.519737
15.260000	40.519737
15.270000	40.519737
15.280000	40.519737
15.290000	40.519737
15.300000	40.519737
15.310000	40.519737
15.320000	40.519737
15.330000	40.519737
15.340000	40.519737
15.350000	40.519737
15.360000	40.519737
15.370000	40.519737
15.380000	40.519737
15.390000	40.519737
15.400000	40.519737
15.410000	40.519737
15.420000	40.519737
15.430000	40.519737
15.440000	40.519737
15.450000	40.519737
15.460000	40.519737
15.470000	40.519737
15.480000	40.519737
15.490000	40.519737
15.500000	40.196593
15.510000	40.196593
15.520000	40.196593
15.530000	40.196593
15.540000	40.196593
15.550000	40.196593
15.560000	40.196593
15.570000	40.196593
15.580000	40.196593
15.590000	40.196593
15.600000	40.196593
15.610000	40.196593
15.620000	40.196593
15.630000	40.196593
15.640000	40.196593
15.650000	40.196593
15.660000	40.196593
15.670000	40.196593
15.680000	40.196593
15.690000	40.196593
15.700000	40.196593
15.710000	40.196593
15.720000	40.196593
15.730000	40.196593
15.740000	40.196593
15.750000	40.196593
15.760000	40.196593
15.770000	40.196593
15.780000	40.196593
15.790000	40.196593
15.800000	40.196593
15.810000	40.196593
15.820000	40.196593
15.830000	40.196593
15.840000	40.196593
15.850000	40.196593
15.860000	40.196593
15.870000	40.196593
15.880000	40.196593
15.890000	40.196593
15.900000	40.196593
15.910000	40.196593
15.920000	40.196593
15.930000	40.196593
15.940000	40.196593
15.950000	40.196593
15.960000	40.196593
15.970000	40.196593
15.980000	40.196593
15.990000	40.196593
16.000000	39.881682
16.010000	39.881682
16.020000	39.881682
16.030000	39.881682
16.040000	39.881682
16.050000	39.881682
16.060000	39.881682
16.070000	39.881682
16.080000	39.881682
16.090000	39.881682
16.100000	39.881682
16.110000	39.881682
16.120000	39.881682
16.130000	39.881682
16.140000	39.881682
16.150000	39.881682
16.160000	39.881682
16.170000	39.881682
16.180000	39.881682
16.190000	39.881682
16.200000	39.881682
16.210000	39.881682
16.220000	39.881682
16.230000	39.881682
16.240000	39.881682
16.250000	39.881682
16.260000	39.881682
16.270000	39.881682
16.280000	39.881682
16.290000	39.881682
16.300000	39.881682
16.310000	39.881682
16.320000	39.881682
16.330000	39.881682
16.340000	39.881682
16.350000	39.881682
16.360000	39.881682
16.370000	39.881682
16.380000	39.881682
16.390000	39.881682
16.400000	39.881682
16.410000	39.881682
16.420000	39.881682
16.430000	39.881682
16.440000	39.881682
16.450000	39.881682
16.460000	39.881682
16.470000	39.881682
16.480000	39.881682
16.490000	39.881682
16.500000	39.574698
16.510000	39.574698
16.520000	39.574698
16.530000	39.574698
16.540000	39.574698
16.550000	39.574698
16.560000	39.574698
16.570000	39.574698
16.580000	39.574698
16.590000	39.574698
16.600000	39.574698
16.610000	39.574698
16.620000	39.574698
16.630000	39.574698
16.640000	39.574698
16.650000	39.574698
16.660000	39.574698
16.670000	39.574698
16.680000	39.574698
16.690000	39.574698
16.700000	39.574698
16.710000	39.574698
16.720000	39.574698
16.730000	39.574698
16.740000	39.574698
16.750000	39.574698
16.760000	39.574698
16.770000	39.574698
16.780000	39.574698
16.790000	39.574698
16.800000	39.574698
16.810000	39.574698
16.820000	39.574698
16.830000	39.574698
16.840000	39.574698
16.850000	39.574698
16.860000	39.574698
16.870000	39.574698
16.880000	39.574698
16.890000	39.574698
16.900000	39.574698
16.910000	39.574698
16.920000	39.574698
16.930000	39.574698
16.940000	39.574698
16.950000	39.574698
16.960000	39.574698
16.970000	39.574698
16.980000	39.574698
16.990000	39.574698
17.000000	39.276486
17.010000	39.276486
17.020000	39.276486
17.030000	39.276486
17.040000	39.276486
17.050000	39.276486
17.060000	39.276486
17.070000	39.276486
17.080000	39.276486
17.090000	39.276486
17.100000	39.276486
17.110000	39.276486
17.120000	39.276486
17.130000	39.276486
17.140000	39.276486
17.150000	39.276486
17.160000	39.276486
17.170000	39.276486
17.180000	39.276486
17.190000	39.276486
17.200000	39.276486
17.210000	39.276486
17.220000	39.276486
17.230000	39.276486
17.240000	39.276486
17.250000	39.276486
17.260000	39.276486
17.270000	39.276486
17.280000	39.276486
17.290000	39.276486
17.300000	39.276486
17.310000	39.276486
17.320000	39.276486
17.330000	39.276486
17.340000	39.276486
17.350000	39.276486
17.360000	39.276486
17.370000	39.276486
17.380000	39.276486
17.390000	39.276486
17.400000	39.276486
17.410000	39.276486
17.420000	39.276486
17.430000	39.276486
17.440000	39.276486
17.450000	39.276486
17.460000	39.276486
17.470000	39.276486
17.480000	39.276486
17.490000	39.276486
17.500000	38.988649
17.510000	38.988649
17.520000	38.988649
17.530000	38.988649
17.540000	38.988649
17.550000	38.988649
17.560000	38.988649
17.570000	38.988649
17.580000	38.988649
17.590000	38.988649
17.600000	38.988649
17.610000	38.988649
17.620000	38.988649
17.630000	38.988649
17.640000	38.988649
17.650000	38.988649
17.660000	38.988649
17.670000	38.988649
17.680000	38.988649
17.690000	38.988649
17.700000	38.988649
17.710000	38.988649
17.720000	38.988649
17.730000	38.988649
17.740000	38.988649
17.750000	38.988649
17.760000	38.988649
17.770000	38.988649
17.780000	38.988649
17.790000	38.988649
17.800000	38.988649
17.810000	38.988649
17.820000	38.988649
17.830000	38.988649
17.840000	38.988649
17.850000	38.988649
17.860000	38.988649
17.870000	38.988649
17.880000	38.988649
17.890000	38.988649
17.900000	38.988649
17.910000	38.988649
17.920000	38.988649
17.930000	38.988649
17.940000	38.988649
17.950000	38.988649
17.960000	38.988649
17.970000	38.988649
17.980000	38.988649
17.990000	38.988649
