LabVIEW Measurement	
Writer_Version	2
Reader_Version	2
Separator	Tab
Decimal_Separator	.
Multi_Headings	No
X_Columns	One
Time_Pref	Absolute
Operator	biomech-dyno
Date	2023/05/23
Time	16:26:31.1792034999998606061
***End_of_Header***	
	
Channels	1	
Samples	10	
Date	2023/05/23	
Time	18:31:25.9514949999999785123	
X_Dimension	Time	
X0	0.0000000000000000E+0	
Delta_X	0.010000	
***End_of_Header***		
X_Value	Untitled	Comment
0.000000	25.121384
0.010000	25.121384
0.020000	25.121384
0.030000	25.121384
0.040000	25.121384
0.050000	25.121384
0.060000	25.121384
0.070000	25.121384
0.080000	25.121384
0.090000	25.121384
0.100000	25.121384
0.110000	25.121384
0.120000	25.121384
0.130000	25.121384
0.140000	25.121384
0.150000	25.121384
0.160000	25.121384
0.170000	25.121384
0.180000	25.121384
0.190000	25.121384
0.200000	25.121384
0.210000	25.121384
0.220000	25.121384
0.230000	25.121384
0.240000	25.121384
0.250000	25.121384
0.260000	25.121384
0.270000	25.121384
0.280000	25.121384
0.290000	25.121384
0.300000	25.121384
0.310000	25.121384
0.320000	25.121384
0.330000	25.121384
0.340000	25.121384
0.350000	25.121384
0.360000	25.121384
0.370000	25.121384
0.380000	25.121384
0.390000	25.121384
0.400000	25.121384
0.410000	25.121384
0.420000	25.121384
0.430000	25.121384
0.440000	25.121384
0.450000	25.121384
0.460000	25.121384
0.470000	25.121384
0.480000	25.121384
0.490000	25.121384
0.500000	25.176191
0.510000	25.176191
0.520000	25.176191
0.530000	25.176191
0.540000	25.176191
0.550000	25.176191
0.560000	25.176191
0.570000	25.176191
0.580000	25.176191
0.590000	25.176191
0.600000	25.176191
0.610000	25.176191
0.620000	25.176191
0.630000	25.176191
0.640000	25.176191
0.650000	25.176191
0.660000	25.176191
0.670000	25.176191
0.680000	25.176191
0.690000	25.176191
0.700000	25.176191
0.710000	25.176191
0.720000	25.176191
0.730000	25.176191
0.740000	25.176191
0.750000	25.176191
0.760000	25.176191
0.770000	25.176191
0.780000	25.176191
0.790000	25.176191
0.800000	25.176191
0.810000	25.176191
0.820000	25.176191
0.830000	25.176191
0.840000	25.176191
0.850000	25.176191
0.860000	25.176191
0.870000	25.176191
0.880000	25.176191
0.890000	25.176191
0.900000	25.176191
0.910000	25.176191
0.920000	25.176191
0.930000	25.176191
0.940000	25.176191
0.950000	25.176191
0.960000	25.176191
0.970000	25.176191
0.980000	25.176191
0.990000	25.176191
1.000000	25.749884
1.010000	25.749884
1.020000	25.749884
1.030000	25.749884
1.040000	25.749884
1.050000	25.749884
1.060000	25.749884
1.070000	25.749884
1.080000	25.749884
1.090000	25.749884
1.100000	25.749884
1.110000	25.749884
1.120000	25.749884
1.130000	25.749884
1.140000	25.749884
1.150000	25.749884
1.160000	25.749884
1.170000	25.749884
1.180000	25.749884
1.190000	25.749884
1.200000	25.749884
1.210000	25.749884
1.220000	25.749884
1.230000	25.749884
1.240000	25.749884
1.250000	25.749884
1.260000	25.749884
1.270000	25.749884
1.280000	25.749884
1.290000	25.749884
1.300000	25.749884
1.310000	25.749884
1.320000	25.749884
1.330000	25.749884
1.340000	25.749884
1.350000	25.749884
1.360000	25.749884
1.370000	25.749884
1.380000	25.749884
1.390000	25.749884
1.400000	25.749884
1.410000	25.749884
1.420000	25.749884
1.430000	25.749884
1.440000	25.749884
1.450000	25.749884
1.460000	25.749884
1.470000	25.749884
1.480000	25.749884
1.490000	25.749884
1.500000	27.101186
1.510000	27.101186
1.520000	27.101186
1.530000	27.101186
1.540000	27.101186
1.550000	27.101186
1.560000	27.101186
1.570000	27.101186
1.580000	27.101186
1.590000	27.101186
1.600000	27.101186
1.610000	27.101186
1.620000	27.101186
1.630000	27.101186
1.640000	27.101186
1.650000	27.101186
1.660000	27.101186
1.670000	27.101186
1.680000	27.101186
1.690000	27.101186
1.700000	27.101186
1.710000	27.101186
1.720000	27.101186
1.730000	27.101186
1.740000	27.101186
1.750000	27.101186
1.760000	27.101186
1.770000	27.101186
1.780000	27.101186
1.790000	27.101186
1.800000	27.101186
1.810000	27.101186
1.820000	27.101186
1.830000	27.101186
1.840000	27.101186
1.850000	27.101186
1.860000	27.101186
1.870000	27.101186
1.880000	27.101186
1.890000	27.101186
1.900000	27.101186
1.910000	27.101186
1.920000	27.101186
1.930000	27.101186
1.940000	27.101186
1.950000	27.101186
1.960000	27.101186
1.970000	27.101186
1.980000	27.101186
1.990000	27.101186
2.000000	29.083363
2.010000	29.083363
2.020000	29.083363
2.030000	29.083363
2.040000	29.083363
2.050000	29.083363
2.060000	29.083363
2.070000	29.083363
2.080000	29.083363
2.090000	29.083363
2.100000	29.083363
2.110000	29.083363
2.120000	29.083363
2.130000	29.083363
2.140000	29.083363
2.150000	29.083363
2.160000	29.083363
2.170000	29.083363
2.180000	29.083363
2.190000	29.083363
2.200000	29.083363
2.210000	29.083363
2.220000	29.083363
2.230000	29.083363
2.240000	29.083363
2.250000	29.083363
2.260000	29.083363
2.270000	29.083363
2.280000	29.083363
2.290000	29.083363
2.300000	29.083363
2.310000	29.083363
2.320000	29.083363
2.330000	29.083363
2.340000	29.083363
2.350000	29.083363
2.360000	29.083363
2.370000	29.083363
2.380000	29.083363
2.390000	29.083363
2.400000	29.083363
2.410000	29.083363
2.420000	29.083363
2.430000	29.083363
2.440000	29.083363
2.450000	29.083363
2.460000	29.083363
2.470000	29.083363
2.480000	29.083363
2.490000	29.083363
2.500000	31.553391
2.510000	31.553391
2.520000	31.553391
2.530000	31.553391
2.540000	31.553391
2.550000	31.553391
2.560000	31.553391
2.570000	31.553391
2.580000	31.553391
2.590000	31.553391
2.600000	31.553391
2.610000	31.553391
2.620000	31.553391
2.630000	31.553391
2.640000	31.553391
2.650000	31.553391
2.660000	31.553391
2.670000	31.553391
2.680000	31.553391
2.690000	31.553391
2.700000	31.553391
2.710000	31.553391
2.720000	31.553391
2.730000	31.553391
2.740000	31.553391
2.750000	31.553391
2.760000	31.553391
2.770000	31.553391
2.780000	31.553391
2.790000	31.553391
2.800000	31.553391
2.810000	31.553391
2.820000	31.553391
2.830000	31.553391
2.840000	31.553391
2.850000	31.553391
2.860000	31.553391
2.870000	31.553391
2.880000	31.553391
2.890000	31.553391
2.900000	31.553391
2.910000	31.553391
2.920000	31.553391
2.930000	31.553391
2.940000	31.553391
2.950000	31.553391
2.960000	31.553391
2.970000	31.553391
2.980000	31.553391
2.990000	31.553391
3.000000	34.406159
3.010000	34.406159
3.020000	34.406159
3.030000	34.406159
3.040000	34.406159
3.050000	34.406159
3.060000	34.406159
3.070000	34.406159
3.080000	34.406159
3.090000	34.406159
3.100000	34.406159
3.110000	34.406159
3.120000	34.406159
3.130000	34.406159
3.140000	34.406159
3.150000	34.406159
3.160000	34.406159
3.170000	34.406159
3.180000	34.406159
3.190000	34.406159
3.200000	34.406159
3.210000	34.406159
3.220000	34.406159
3.230000	34.406159
3.240000	34.406159
3.250000	34.406159
3.260000	34.406159
3.270000	34.406159
3.280000	34.406159
3.290000	34.406159
3.300000	34.406159
3.310000	34.406159
3.320000	34.406159
3.330000	34.406159
3.340000	34.406159
3.350000	34.406159
3.360000	34.406159
3.370000	34.406159
3.380000	34.406159
3.390000	34.406159
3.400000	34.406159
3.410000	34.406159
3.420000	34.406159
3.430000	34.406159
3.440000	34.406159
3.450000	34.406159
3.460000	34.406159
3.470000	34.406159
3.480000	34.406159
3.490000	34.406159
3.500000	37.470637
3.510000	37.470637
3.520000	37.470637
3.530000	37.470637
3.540000	37.470637
3.550000	37.470637
3.560000	37.470637
3.570000	37.470637
3.580000	37.470637
3.590000	37.470637
3.600000	37.470637
3.610000	37.470637
3.620000	37.470637
3.630000	37.470637
3.640000	37.470637
3.650000	37.470637
3.660000	37.470637
3.670000	37.470637
3.680000	37.470637
3.690000	37.470637
3.700000	37.470637
3.710000	37.470637
3.720000	37.470637
3.730000	37.470637
3.740000	37.470637
3.750000	37.470637
3.760000	37.470637
3.770000	37.470637
3.780000	37.470637
3.790000	37.470637
3.800000	37.470637
3.810000	37.470637
3.820000	37.470637
3.830000	37.470637
3.840000	37.470637
3.850000	37.470637
3.860000	37.470637
3.870000	37.470637
3.880000	37.470637
3.890000	37.470637
3.900000	37.470637
3.910000	37.470637
3.920000	37.470637
3.930000	37.470637
3.940000	37.470637
3.950000	37.470637
3.960000	37.470637
3.970000	37.470637
3.980000	37.470637
3.990000	37.470637
4.000000	40.141568
4.010000	40.141568
4.020000	40.141568
4.030000	40.141568
4.040000	40.141568
4.050000	40.141568
4.060000	40.141568
4.070000	40.141568
4.080000	40.141568
4.090000	40.141568
4.100000	40.141568
4.110000	40.141568
4.120000	40.141568
4.130000	40.141568
4.140000	40.141568
4.150000	40.141568
4.160000	40.141568
4.170000	40.141568
4.180000	40.141568
4.190000	40.141568
4.200000	40.141568
4.210000	40.141568
4.220000	40.141568
4.230000	40.141568
4.240000	40.141568
4.250000	40.141568
4.260000	40.141568
4.270000	40.141568
4.280000	40.141568
4.290000	40.141568
4.300000	40.141568
4.310000	40.141568
4.320000	40.141568
4.330000	40.141568
4.340000	40.141568
4.350000	40.141568
4.360000	40.141568
4.370000	40.141568
4.380000	40.141568
4.390000	40.141568
4.400000	40.141568
4.410000	40.141568
4.420000	40.141568
4.430000	40.141568
4.440000	40.141568
4.450000	40.141568
4.460000	40.141568
4.470000	40.141568
4.480000	40.141568
4.490000	40.141568
4.500000	42.175364
4.510000	42.175364
4.520000	42.175364
4.530000	42.175364
4.540000	42.175364
4.550000	42.175364
4.560000	42.175364
4.570000	42.175364
4.580000	42.175364
4.590000	42.175364
4.600000	42.175364
4.610000	42.175364
4.620000	42.175364
4.630000	42.175364
4.640000	42.175364
4.650000	42.175364
4.660000	42.175364
4.670000	42.175364
4.680000	42.175364
4.690000	42.175364
4.700000	42.175364
4.710000	42.175364
4.720000	42.175364
4.730000	42.175364
4.740000	42.175364
4.750000	42.175364
4.760000	42.175364
4.770000	42.175364
4.780000	42.175364
4.790000	42.175364
4.800000	42.175364
4.810000	42.175364
4.820000	42.175364
4.830000	42.175364
4.840000	42.175364
4.850000	42.175364
4.860000	42.175364
4.870000	42.175364
4.880000	42.175364
4.890000	42.175364
4.900000	42.175364
4.910000	42.175364
4.920000	42.175364
4.930000	42.175364
4.940000	42.175364
4.950000	42.175364
4.960000	42.175364
4.970000	42.175364
4.980000	42.175364
4.990000	42.175364
5.000000	43.670885
5.010000	43.670885
5.020000	43.670885
5.030000	43.670885
5.040000	43.670885
5.050000	43.670885
5.060000	43.670885
5.070000	43.670885
5.080000	43.670885
5.090000	43.670885
5.100000	43.670885
5.110000	43.670885
5.120000	43.670885
5.130000	43.670885
5.140000	43.670885
5.150000	43.670885
5.160000	43.670885
5.170000	43.670885
5.180000	43.670885
5.190000	43.670885
5.200000	43.670885
5.210000	43.670885
5.220000	43.670885
5.230000	43.670885
5.240000	43.670885
5.250000	43.670885
5.260000	43.670885
5.270000	43.670885
5.280000	43.670885
5.290000	43.670885
5.300000	43.670885
5.310000	43.670885
5.320000	43.670885
5.330000	43.670885
5.340000	43.670885
5.350000	43.670885
5.360000	43.670885
5.370000	43.670885
5.380000	43.670885
5.390000	43.670885
5.400000	43.670885
5.410000	43.670885
5.420000	43.670885
5.430000	43.670885
5.440000	43.670885
5.450000	43.670885
5.460000	43.670885
5.470000	43.670885
5.480000	43.670885
5.490000	43.670885
5.500000	44.721674
5.510000	44.721674
5.520000	44.721674
5.530000	44.721674
5.540000	44.721674
5.550000	44.721674
5.560000	44.721674
5.570000	44.721674
5.580000	44.721674
5.590000	44.721674
5.600000	44.721674
5.610000	44.721674
5.620000	44.721674
5.630000	44.721674
5.640000	44.721674
5.650000	44.721674
5.660000	44.721674
5.670000	44.721674
5.680000	44.721674
5.690000	44.721674
5.700000	44.721674
5.710000	44.721674
5.720000	44.721674
5.730000	44.721674
5.740000	44.721674
5.750000	44.721674
5.760000	44.721674
5.770000	44.721674
5.780000	44.721674
5.790000	44.721674
5.800000	44.721674
5.810000	44.721674
5.820000	44.721674
5.830000	44.721674
5.840000	44.721674
5.850000	44.721674
5.860000	44.721674
5.870000	44.721674
5.880000	44.721674
5.890000	44.721674
5.900000	44.721674
5.910000	44.721674
5.920000	44.721674
5.930000	44.721674
5.940000	44.721674
5.950000	44.721674
5.960000	44.721674
5.970000	44.721674
5.980000	44.721674
5.990000	44.721674
6.000000	45.421529
6.010000	45.421529
6.020000	45.421529
6.030000	45.421529
6.040000	45.421529
6.050000	45.421529
6.060000	45.421529
6.070000	45.421529
6.080000	45.421529
6.090000	45.421529
6.100000	45.421529
6.110000	45.421529
6.120000	45.421529
6.130000	45.421529
6.140000	45.421529
6.150000	45.421529
6.160000	45.421529
6.170000	45.421529
6.180000	45.421529
6.190000	45.421529
6.200000	45.421529
6.210000	45.421529
6.220000	45.421529
6.230000	45.421529
6.240000	45.421529
6.250000	45.421529
6.260000	45.421529
6.270000	45.421529
6.280000	45.421529
6.290000	45.421529
6.300000	45.421529
6.310000	45.421529
6.320000	45.421529
6.330000	45.421529
6.340000	45.421529
6.350000	45.421529
6.360000	45.421529
6.370000	45.421529
6.380000	45.421529
6.390000	45.421529
6.400000	45.421529
6.410000	45.421529
6.420000	45.421529
6.430000	45.421529
6.440000	45.421529
6.450000	45.421529
6.460000	45.421529
6.470000	45.421529
6.480000	45.421529
6.490000	45.421529
6.500000	45.852127
6.510000	45.852127
6.520000	45.852127
6.530000	45.852127
6.540000	45.852127
6.550000	45.852127
6.560000	45.852127
6.570000	45.852127
6.580000	45.852127
6.590000	45.852127
6.600000	45.852127
6.610000	45.852127
6.620000	45.852127
6.630000	45.852127
6.640000	45.852127
6.650000	45.852127
6.660000	45.852127
6.670000	45.852127
6.680000	45.852127
6.690000	45.852127
6.700000	45.852127
6.710000	45.852127
6.720000	45.852127
6.730000	45.852127
6.740000	45.852127
6.750000	45.852127
6.760000	45.852127
6.770000	45.852127
6.780000	45.852127
6.790000	45.852127
6.800000	45.852127
6.810000	45.852127
6.820000	45.852127
6.830000	45.852127
6.840000	45.852127
6.850000	45.852127
6.860000	45.852127
6.870000	45.852127
6.880000	45.852127
6.890000	45.852127
6.900000	45.852127
6.910000	45.852127
6.920000	45.852127
6.930000	45.852127
6.940000	45.852127
6.950000	45.852127
6.960000	45.852127
6.970000	45.852127
6.980000	45.852127
6.990000	45.852127
7.000000	46.080162
7.010000	46.080162
7.020000	46.080162
7.030000	46.080162
7.040000	46.080162
7.050000	46.080162
7.060000	46.080162
7.070000	46.080162
7.080000	46.080162
7.090000	46.080162
7.100000	46.080162
7.110000	46.080162
7.120000	46.080162
7.130000	46.080162
7.140000	46.080162
7.150000	46.080162
7.160000	46.080162
7.170000	46.080162
7.180000	46.080162
7.190000	46.080162
7.200000	46.080162
7.210000	46.080162
7.220000	46.080162
7.230000	46.080162
7.240000	46.080162
7.250000	46.080162
7.260000	46.080162
7.270000	46.080162
7.280000	46.080162
7.290000	46.080162
7.300000	46.080162
7.310000	46.080162
7.320000	46.080162
7.330000	46.080162
7.340000	46.080162
7.350000	46.080162
7.360000	46.080162
7.370000	46.080162
7.380000	46.080162
7.390000	46.080162
7.400000	46.080162
7.410000	46.080162
7.420000	46.080162
7.430000	46.080162
7.440000	46.080162
7.450000	46.080162
7.460000	46.080162
7.470000	46.080162
7.480000	46.080162
7.490000	46.080162
7.500000	46.156847
7.510000	46.156847
7.520000	46.156847
7.530000	46.156847
7.540000	46.156847
7.550000	46.156847
7.560000	46.156847
7.570000	46.156847
7.580000	46.156847
7.590000	46.156847
7.600000	46.156847
7.610000	46.156847
7.620000	46.156847
7.630000	46.156847
7.640000	46.156847
7.650000	46.156847
7.660000	46.156847
7.670000	46.156847
7.680000	46.156847
7.690000	46.156847
7.700000	46.156847
7.710000	46.156847
7.720000	46.156847
7.730000	46.156847
7.740000	46.156847
7.750000	46.156847
7.760000	46.156847
7.770000	46.156847
7.780000	46.156847
7.790000	46.156847
7.800000	46.156847
7.810000	46.156847
7.820000	46.156847
7.830000	46.156847
7.840000	46.156847
7.850000	46.156847
7.860000	46.156847
7.870000	46.156847
7.880000	46.156847
7.890000	46.156847
7.900000	46.156847
7.910000	46.156847
7.920000	46.156847
7.930000	46.156847
7.940000	46.156847
7.950000	46.156847
7.960000	46.156847
7.970000	46.156847
7.980000	46.156847
7.990000	46.156847
8.000000	46.114837
8.010000	46.114837
8.020000	46.114837
8.030000	46.114837
8.040000	46.114837
8.050000	46.114837
8.060000	46.114837
8.070000	46.114837
8.080000	46.114837
8.090000	46.114837
8.100000	46.114837
8.110000	46.114837
8.120000	46.114837
8.130000	46.114837
8.140000	46.114837
8.150000	46.114837
8.160000	46.114837
8.170000	46.114837
8.180000	46.114837
8.190000	46.114837
8.200000	46.114837
8.210000	46.114837
8.220000	46.114837
8.230000	46.114837
8.240000	46.114837
8.250000	46.114837
8.260000	46.114837
8.270000	46.114837
8.280000	46.114837
8.290000	46.114837
8.300000	46.114837
8.310000	46.114837
8.320000	46.114837
8.330000	46.114837
8.340000	46.114837
8.350000	46.114837
8.360000	46.114837
8.370000	46.114837
8.380000	46.114837
8.390000	46.114837
8.400000	46.114837
8.410000	46.114837
8.420000	46.114837
8.430000	46.114837
8.440000	46.114837
8.450000	46.114837
8.460000	46.114837
8.470000	46.114837
8.480000	46.114837
8.490000	46.114837
8.500000	45.977672
8.510000	45.977672
8.520000	45.977672
8.530000	45.977672
8.540000	45.977672
8.550000	45.977672
8.560000	45.977672
8.570000	45.977672
8.580000	45.977672
8.590000	45.977672
8.600000	45.977672
8.610000	45.977672
8.620000	45.977672
8.630000	45.977672
8.640000	45.977672
8.650000	45.977672
8.660000	45.977672
8.670000	45.977672
8.680000	45.977672
8.690000	45.977672
8.700000	45.977672
8.710000	45.977672
8.720000	45.977672
8.730000	45.977672
8.740000	45.977672
8.750000	45.977672
8.760000	45.977672
8.770000	45.977672
8.780000	45.977672
8.790000	45.977672
8.800000	45.977672
8.810000	45.977672
8.820000	45.977672
8.830000	45.977672
8.840000	45.977672
8.850000	45.977672
8.860000	45.977672
8.870000	45.977672
8.880000	45.977672
8.890000	45.977672
8.900000	45.977672
8.910000	45.977672
8.920000	45.977672
8.930000	45.977672
8.940000	45.977672
8.950000	45.977672
8.960000	45.977672
8.970000	45.977672
8.980000	45.977672
8.990000	45.977672
9.000000	45.769536
9.010000	45.769536
9.020000	45.769536
9.030000	45.769536
9.040000	45.769536
9.050000	45.769536
9.060000	45.769536
9.070000	45.769536
9.080000	45.769536
9.090000	45.769536
9.100000	45.769536
9.110000	45.769536
9.120000	45.769536
9.130000	45.769536
9.140000	45.769536
9.150000	45.769536
9.160000	45.769536
9.170000	45.769536
9.180000	45.769536
9.190000	45.769536
9.200000	45.769536
9.210000	45.769536
9.220000	45.769536
9.230000	45.769536
9.240000	45.769536
9.250000	45.769536
9.260000	45.769536
9.270000	45.769536
9.280000	45.769536
9.290000	45.769536
9.300000	45.769536
9.310000	45.769536
9.320000	45.769536
9.330000	45.769536
9.340000	45.769536
9.350000	45.769536
9.360000	45.769536
9.370000	45.769536
9.380000	45.769536
9.390000	45.769536
9.400000	45.769536
9.410000	45.769536
9.420000	45.769536
9.430000	45.769536
9.440000	45.769536
9.450000	45.769536
9.460000	45.769536
9.470000	45.769536
9.480000	45.769536
9.490000	45.769536
9.500000	45.510238
9.510000	45.510238
9.520000	45.510238
9.530000	45.510238
9.540000	45.510238
9.550000	45.510238
9.560000	45.510238
9.570000	45.510238
9.580000	45.510238
9.590000	45.510238
9.600000	45.510238
9.610000	45.510238
9.620000	45.510238
9.630000	45.510238
9.640000	45.510238
9.650000	45.510238
9.660000	45.510238
9.670000	45.510238
9.680000	45.510238
9.690000	45.510238
9.700000	45.510238
9.710000	45.510238
9.720000	45.510238
9.730000	45.510238
9.740000	45.510238
9.750000	45.510238
9.760000	45.510238
9.770000	45.510238
9.780000	45.510238
9.790000	45.510238
9.800000	45.510238
9.810000	45.510238
9.820000	45.510238
9.830000	45.510238
9.840000	45.510238
9.850000	45.510238
9.860000	45.510238
9.870000	45.510238
9.880000	45.510238
9.890000	45.510238
9.900000	45.510238
9.910000	45.510238
9.920000	45.510238
9.930000	45.510238
9.940000	45.510238
9.950000	45.510238
9.960000	45.510238
9.970000	45.510238
9.980000	45.510238
9.990000	45.510238
10.000000	45.211217
10.010000	45.211217
10.020000	45.211217
10.030000	45.211217
10.040000	45.211217
10.050000	45.211217
10.060000	45.211217
10.070000	45.211217
10.080000	45.211217
10.090000	45.211217
10.100000	45.211217
10.110000	45.211217
10.120000	45.211217
10.130000	45.211217
10.140000	45.211217
10.150000	45.211217
10.160000	45.211217
10.170000	45.211217
10.180000	45.211217
10.190000	45.211217
10.200000	45.211217
10.210000	45.211217
10.220000	45.211217
10.230000	45.211217
10.240000	45.211217
10.250000	45.211217
10.260000	45.211217
10.270000	45.211217
10.280000	45.211217
10.290000	45.211217
10.300000	45.211217
10.310000	45.211217
10.320000	45.211217
10.330000	45.211217
10.340000	45.211217
10.350000	45.211217
10.360000	45.211217
10.370000	45.211217
10.380000	45.211217
10.390000	45.211217
10.400000	45.211217
10.410000	45.211217
10.420000	45.211217
10.430000	45.211217
10.440000	45.211217
10.450000	45.211217
10.460000	45.211217
10.470000	45.211217
10.480000	45.211217
10.490000	45.211217
10.500000	44.879994
10.510000	44.879994
10.520000	44.879994
10.530000	44.879994
10.540000	44.879994
10.550000	44.879994
10.560000	44.879994
10.570000	44.879994
10.580000	44.879994
10.590000	44.879994
10.600000	44.879994
10.610000	44.879994
10.620000	44.879994
10.630000	44.879994
10.640000	44.879994
10.650000	44.879994
10.660000	44.879994
10.670000	44.879994
10.680000	44.879994
10.690000	44.879994
10.700000	44.879994
10.710000	44.879994
10.720000	44.879994
10.730000	44.879994
10.740000	44.879994
10.750000	44.879994
10.760000	44.879994
10.770000	44.879994
10.780000	44.879994
10.790000	44.879994
10.800000	44.879994
10.810000	44.879994
10.820000	44.879994
10.830000	44.879994
10.840000	44.879994
10.850000	44.879994
10.860000	44.879994
10.870000	44.879994
10.880000	44.879994
10.890000	44.879994
10.900000	44.879994
10.910000	44.879994
10.920000	44.879994
10.930000	44.879994
10.940000	44.879994
10.950000	44.879994
10.960000	44.879994
10.970000	44.879994
10.980000	44.879994
10.990000	44.879994
11.000000	44.529389
11.010000	44.529389
11.020000	44.529389
11.030000	44.529389
11.040000	44.529389
11.050000	44.529389
11.060000	44.529389
11.070000	44.529389
11.080000	44.529389
11.090000	44.529389
11.100000	44.529389
11.110000	44.529389
11.120000	44.529389
11.130000	44.529389
11.140000	44.529389
11.150000	44.529389
11.160000	44.529389
11.170000	44.529389
11.180000	44.529389
11.190000	44.529389
11.200000	44.529389
11.210000	44.529389
11.220000	44.529389
11.230000	44.529389
11.240000	44.529389
11.250000	44.529389
11.260000	44.529389
11.270000	44.529389
11.280000	44.529389
11.290000	44.529389
11.300000	44.529389
11.310000	44.529389
11.320000	44.529389
11.330000	44.529389
11.340000	44.529389
11.350000	44.529389
11.360000	44.529389
11.370000	44.529389
11.380000	44.529389
11.390000	44.529389
11.400000	44.529389
11.410000	44.529389
11.420000	44.529389
11.430000	44.529389
11.440000	44.529389
11.450000	44.529389
11.460000	44.529389
11.470000	44.529389
11.480000	44.529389
11.490000	44.529389
11.500000	44.173497
11.510000	44.173497
11.520000	44.173497
11.530000	44.173497
11.540000	44.173497
11.550000	44.173497
11.560000	44.173497
11.570000	44.173497
11.580000	44.173497
11.590000	44.173497
11.600000	44.173497
11.610000	44.173497
11.620000	44.173497
11.630000	44.173497
11.640000	44.173497
11.650000	44.173497
11.660000	44.173497
11.670000	44.173497
11.680000	44.173497
11.690000	44.173497
11.700000	44.173497
11.710000	44.173497
11.720000	44.173497
11.730000	44.173497
11.740000	44.173497
11.750000	44.173497
11.760000	44.173497
11.770000	44.173497
11.780000	44.173497
11.790000	44.173497
11.800000	44.173497
11.810000	44.173497
11.820000	44.173497
11.830000	44.173497
11.840000	44.173497
11.850000	44.173497
11.860000	44.173497
11.870000	44.173497
11.880000	44.173497
11.890000	44.173497
11.900000	44.173497
11.910000	44.173497
11.920000	44.173497
11.930000	44.173497
11.940000	44.173497
11.950000	44.173497
11.960000	44.173497
11.970000	44.173497
11.980000	44.173497
11.990000	44.173497
12.000000	43.807656
12.010000	43.807656
12.020000	43.807656
12.030000	43.807656
12.040000	43.807656
12.050000	43.807656
12.060000	43.807656
12.070000	43.807656
12.080000	43.807656
12.090000	43.807656
12.100000	43.807656
12.110000	43.807656
12.120000	43.807656
12.130000	43.807656
12.140000	43.807656
12.150000	43.807656
12.160000	43.807656
12.170000	43.807656
12.180000	43.807656
12.190000	43.807656
12.200000	43.807656
12.210000	43.807656
12.220000	43.807656
12.230000	43.807656
12.240000	43.807656
12.250000	43.807656
12.260000	43.807656
12.270000	43.807656
12.280000	43.807656
12.290000	43.807656
12.300000	43.807656
12.310000	43.807656
12.320000	43.807656
12.330000	43.807656
12.340000	43.807656
12.350000	43.807656
12.360000	43.807656
12.370000	43.807656
12.380000	43.807656
12.390000	43.807656
12.400000	43.807656
12.410000	43.807656
12.420000	43.807656
12.430000	43.807656
12.440000	43.807656
12.450000	43.807656
12.460000	43.807656
12.470000	43.807656
12.480000	43.807656
12.490000	43.807656
12.500000	43.438854
12.510000	43.438854
12.520000	43.438854
12.530000	43.438854
12.540000	43.438854
12.550000	43.438854
12.560000	43.438854
12.570000	43.438854
12.580000	43.438854
12.590000	43.438854
12.600000	43.438854
12.610000	43.438854
12.620000	43.438854
12.630000	43.438854
12.640000	43.438854
12.650000	43.438854
12.660000	43.438854
12.670000	43.438854
12.680000	43.438854
12.690000	43.438854
12.700000	43.438854
12.710000	43.438854
12.720000	43.438854
12.730000	43.438854
12.740000	43.438854
12.750000	43.438854
12.760000	43.438854
12.770000	43.438854
12.780000	43.438854
12.790000	43.438854
12.800000	43.438854
12.810000	43.438854
12.820000	43.438854
12.830000	43.438854
12.840000	43.438854
12.850000	43.438854
12.860000	43.438854
12.870000	43.438854
12.880000	43.438854
12.890000	43.438854
12.900000	43.438854
12.910000	43.438854
12.920000	43.438854
12.930000	43.438854
12.940000	43.438854
12.950000	43.438854
12.960000	43.438854
12.970000	43.438854
12.980000	43.438854
12.990000	43.438854
13.000000	43.070585
13.010000	43.070585
13.020000	43.070585
13.030000	43.070585
13.040000	43.070585
13.050000	43.070585
13.060000	43.070585
13.070000	43.070585
13.080000	43.070585
13.090000	43.070585
13.100000	43.070585
13.110000	43.070585
13.120000	43.070585
13.130000	43.070585
13.140000	43.070585
13.150000	43.070585
13.160000	43.070585
13.170000	43.070585
13.180000	43.070585
13.190000	43.070585
13.200000	43.070585
13.210000	43.070585
13.220000	43.070585
13.230000	43.070585
13.240000	43.070585
13.250000	43.070585
13.260000	43.070585
13.270000	43.070585
13.280000	43.070585
13.290000	43.070585
13.300000	43.070585
13.310000	43.070585
13.320000	43.070585
13.330000	43.070585
13.340000	43.070585
13.350000	43.070585
13.360000	43.070585
13.370000	43.070585
13.380000	43.070585
13.390000	43.070585
13.400000	43.070585
13.410000	43.070585
13.420000	43.070585
13.430000	43.070585
13.440000	43.070585
13.450000	43.070585
13.460000	43.070585
13.470000	43.070585
13.480000	43.070585
13.490000	43.070585
13.500000	42.697494
13.510000	42.697494
13.520000	42.697494
13.530000	42.697494
13.540000	42.697494
13.550000	42.697494
13.560000	42.697494
13.570000	42.697494
13.580000	42.697494
13.590000	42.697494
13.600000	42.697494
13.610000	42.697494
13.620000	42.697494
13.630000	42.697494
13.640000	42.697494
13.650000	42.697494
13.660000	42.697494
13.670000	42.697494
13.680000	42.697494
13.690000	42.697494
13.700000	42.697494
13.710000	42.697494
13.720000	42.697494
13.730000	42.697494
13.740000	42.697494
13.750000	42.697494
13.760000	42.697494
13.770000	42.697494
13.780000	42.697494
13.790000	42.697494
13.800000	42.697494
13.810000	42.697494
13.820000	42.697494
13.830000	42.697494
13.840000	42.697494
13.850000	42.697494
13.860000	42.697494
13.870000	42.697494
13.880000	42.697494
13.890000	42.697494
13.900000	42.697494
13.910000	42.697494
13.920000	42.697494
13.930000	42.697494
13.940000	42.697494
13.950000	42.697494
13.960000	42.697494
13.970000	42.697494
13.980000	42.697494
13.990000	42.697494
14.000000	42.331868
14.010000	42.331868
14.020000	42.331868
14.030000	42.331868
14.040000	42.331868
14.050000	42.331868
14.060000	42.331868
14.070000	42.331868
14.080000	42.331868
14.090000	42.331868
14.100000	42.331868
14.110000	42.331868
14.120000	42.331868
14.130000	42.331868
14.140000	42.331868
14.150000	42.331868
14.160000	42.331868
14.170000	42.331868
14.180000	42.331868
14.190000	42.331868
14.200000	42.331868
14.210000	42.331868
14.220000	42.331868
14.230000	42.331868
14.240000	42.331868
14.250000	42.331868
14.260000	42.331868
14.270000	42.331868
14.280000	42.331868
14.290000	42.331868
14.300000	42.331868
14.310000	42.331868
14.320000	42.331868
14.330000	42.331868
14.340000	42.331868
14.350000	42.331868
14.360000	42.331868
14.370000	42.331868
14.380000	42.331868
14.390000	42.331868
14.400000	42.331868
14.410000	42.331868
14.420000	42.331868
14.430000	42.331868
14.440000	42.331868
14.450000	42.331868
14.460000	42.331868
14.470000	42.331868
14.480000	42.331868
14.490000	42.331868
14.500000	41.978825
14.510000	41.978825
14.520000	41.978825
14.530000	41.978825
14.540000	41.978825
14.550000	41.978825
14.560000	41.978825
14.570000	41.978825
14.580000	41.978825
14.590000	41.978825
14.600000	41.978825
14.610000	41.978825
14.620000	41.978825
14.630000	41.978825
14.640000	41.978825
14.650000	41.978825
14.660000	41.978825
14.670000	41.978825
14.680000	41.978825
14.690000	41.978825
14.700000	41.978825
14.710000	41.978825
14.720000	41.978825
14.730000	41.978825
14.740000	41.978825
14.750000	41.978825
14.760000	41.978825
14.770000	41.978825
14.780000	41.978825
14.790000	41.978825
14.800000	41.978825
14.810000	41.978825
14.820000	41.978825
14.830000	41.978825
14.840000	41.978825
14.850000	41.978825
14.860000	41.978825
14.870000	41.978825
14.880000	41.978825
14.890000	41.978825
14.900000	41.978825
14.910000	41.978825
14.920000	41.978825
14.930000	41.978825
14.940000	41.978825
14.950000	41.978825
14.960000	41.978825
14.970000	41.978825
14.980000	41.978825
14.990000	41.978825
15.000000	41.631337
15.010000	41.631337
15.020000	41.631337
15.030000	41.631337
15.040000	41.631337
15.050000	41.631337
15.060000	41.631337
15.070000	41.631337
15.080000	41.631337
15.090000	41.631337
15.100000	41.631337
15.110000	41.631337
15.120000	41.631337
15.130000	41.631337
15.140000	41.631337
15.150000	41.631337
15.160000	41.631337
15.170000	41.631337
15.180000	41.631337
15.190000	41.631337
15.200000	41.631337
15.210000	41.631337
15.220000	41.631337
15.230000	41.631337
15.240000	41.631337
15.250000	41.631337
15.260000	41.631337
15.270000	41.631337
15.280000	41.631337
15.290000	41.631337
15.300000	41.631337
15.310000	41.631337
15.320000	41.631337
15.330000	41.631337
15.340000	41.631337
15.350000	41.631337
15.360000	41.631337
15.370000	41.631337
15.380000	41.631337
15.390000	41.631337
15.400000	41.631337
15.410000	41.631337
15.420000	41.631337
15.430000	41.631337
15.440000	41.631337
15.450000	41.631337
15.460000	41.631337
15.470000	41.631337
15.480000	41.631337
15.490000	41.631337
15.500000	41.288489
15.510000	41.288489
15.520000	41.288489
15.530000	41.288489
15.540000	41.288489
15.550000	41.288489
15.560000	41.288489
15.570000	41.288489
15.580000	41.288489
15.590000	41.288489
15.600000	41.288489
15.610000	41.288489
15.620000	41.288489
15.630000	41.288489
15.640000	41.288489
15.650000	41.288489
15.660000	41.288489
15.670000	41.288489
15.680000	41.288489
15.690000	41.288489
15.700000	41.288489
15.710000	41.288489
15.720000	41.288489
15.730000	41.288489
15.740000	41.288489
15.750000	41.288489
15.760000	41.288489
15.770000	41.288489
15.780000	41.288489
15.790000	41.288489
15.800000	41.288489
15.810000	41.288489
15.820000	41.288489
15.830000	41.288489
15.840000	41.288489
15.850000	41.288489
15.860000	41.288489
15.870000	41.288489
15.880000	41.288489
15.890000	41.288489
15.900000	41.288489
15.910000	41.288489
15.920000	41.288489
15.930000	41.288489
15.940000	41.288489
15.950000	41.288489
15.960000	41.288489
15.970000	41.288489
15.980000	41.288489
15.990000	41.288489
16.000000	40.950878
16.010000	40.950878
16.020000	40.950878
16.030000	40.950878
16.040000	40.950878
16.050000	40.950878
16.060000	40.950878
16.070000	40.950878
16.080000	40.950878
16.090000	40.950878
16.100000	40.950878
16.110000	40.950878
16.120000	40.950878
16.130000	40.950878
16.140000	40.950878
16.150000	40.950878
16.160000	40.950878
16.170000	40.950878
16.180000	40.950878
16.190000	40.950878
16.200000	40.950878
16.210000	40.950878
16.220000	40.950878
16.230000	40.950878
16.240000	40.950878
16.250000	40.950878
16.260000	40.950878
16.270000	40.950878
16.280000	40.950878
16.290000	40.950878
16.300000	40.950878
16.310000	40.950878
16.320000	40.950878
16.330000	40.950878
16.340000	40.950878
16.350000	40.950878
16.360000	40.950878
16.370000	40.950878
16.380000	40.950878
16.390000	40.950878
16.400000	40.950878
16.410000	40.950878
16.420000	40.950878
16.430000	40.950878
16.440000	40.950878
16.450000	40.950878
16.460000	40.950878
16.470000	40.950878
16.480000	40.950878
16.490000	40.950878
16.500000	40.618250
16.510000	40.618250
16.520000	40.618250
16.530000	40.618250
16.540000	40.618250
16.550000	40.618250
16.560000	40.618250
16.570000	40.618250
16.580000	40.618250
16.590000	40.618250
16.600000	40.618250
16.610000	40.618250
16.620000	40.618250
16.630000	40.618250
16.640000	40.618250
16.650000	40.618250
16.660000	40.618250
16.670000	40.618250
16.680000	40.618250
16.690000	40.618250
16.700000	40.618250
16.710000	40.618250
16.720000	40.618250
16.730000	40.618250
16.740000	40.618250
16.750000	40.618250
16.760000	40.618250
16.770000	40.618250
16.780000	40.618250
16.790000	40.618250
16.800000	40.618250
16.810000	40.618250
16.820000	40.618250
16.830000	40.618250
16.840000	40.618250
16.850000	40.618250
16.860000	40.618250
16.870000	40.618250
16.880000	40.618250
16.890000	40.618250
16.900000	40.618250
16.910000	40.618250
16.920000	40.618250
16.930000	40.618250
16.940000	40.618250
16.950000	40.618250
16.960000	40.618250
16.970000	40.618250
16.980000	40.618250
16.990000	40.618250
17.000000	40.297945
17.010000	40.297945
17.020000	40.297945
17.030000	40.297945
17.040000	40.297945
17.050000	40.297945
17.060000	40.297945
17.070000	40.297945
17.080000	40.297945
17.090000	40.297945
17.100000	40.297945
17.110000	40.297945
17.120000	40.297945
17.130000	40.297945
17.140000	40.297945
17.150000	40.297945
17.160000	40.297945
17.170000	40.297945
17.180000	40.297945
17.190000	40.297945
17.200000	40.297945
17.210000	40.297945
17.220000	40.297945
17.230000	40.297945
17.240000	40.297945
17.250000	40.297945
17.260000	40.297945
17.270000	40.297945
17.280000	40.297945
17.290000	40.297945
17.300000	40.297945
17.310000	40.297945
17.320000	40.297945
17.330000	40.297945
17.340000	40.297945
17.350000	40.297945
17.360000	40.297945
17.370000	40.297945
17.380000	40.297945
17.390000	40.297945
17.400000	40.297945
17.410000	40.297945
17.420000	40.297945
17.430000	40.297945
17.440000	40.297945
17.450000	40.297945
17.460000	40.297945
17.470000	40.297945
17.480000	40.297945
17.490000	40.297945
17.500000	39.980025
17.510000	39.980025
17.520000	39.980025
17.530000	39.980025
17.540000	39.980025
17.550000	39.980025
17.560000	39.980025
17.570000	39.980025
17.580000	39.980025
17.590000	39.980025
17.600000	39.980025
17.610000	39.980025
17.620000	39.980025
17.630000	39.980025
17.640000	39.980025
17.650000	39.980025
17.660000	39.980025
17.670000	39.980025
17.680000	39.980025
17.690000	39.980025
17.700000	39.980025
17.710000	39.980025
17.720000	39.980025
17.730000	39.980025
17.740000	39.980025
17.750000	39.980025
17.760000	39.980025
17.770000	39.980025
17.780000	39.980025
17.790000	39.980025
17.800000	39.980025
17.810000	39.980025
17.820000	39.980025
17.830000	39.980025
17.840000	39.980025
17.850000	39.980025
17.860000	39.980025
17.870000	39.980025
17.880000	39.980025
17.890000	39.980025
17.900000	39.980025
17.910000	39.980025
17.920000	39.980025
17.930000	39.980025
17.940000	39.980025
17.950000	39.980025
17.960000	39.980025
17.970000	39.980025
17.980000	39.980025
17.990000	39.980025
