LabVIEW Measurement	
Writer_Version	2
Reader_Version	2
Separator	Tab
Decimal_Separator	.
Multi_Headings	No
X_Columns	One
Time_Pref	Absolute
Operator	biomech-dyno
Date	2023/05/23
Time	16:26:31.1792034999998606061
***End_of_Header***	
	
Channels	1	
Samples	10	
Date	2023/05/23	
Time	18:46:17.7624168999995586217	
X_Dimension	Time	
X0	0.0000000000000000E+0	
Delta_X	0.010000	
***End_of_Header***		
X_Value	Untitled	Comment
0.000000	25.188557
0.010000	25.188557
0.020000	25.188557
0.030000	25.188557
0.040000	25.188557
0.050000	25.188557
0.060000	25.188557
0.070000	25.188557
0.080000	25.188557
0.090000	25.188557
0.100000	25.188557
0.110000	25.188557
0.120000	25.188557
0.130000	25.188557
0.140000	25.188557
0.150000	25.188557
0.160000	25.188557
0.170000	25.188557
0.180000	25.188557
0.190000	25.188557
0.200000	25.188557
0.210000	25.188557
0.220000	25.188557
0.230000	25.188557
0.240000	25.188557
0.250000	25.188557
0.260000	25.188557
0.270000	25.188557
0.280000	25.188557
0.290000	25.188557
0.300000	25.188557
0.310000	25.188557
0.320000	25.188557
0.330000	25.188557
0.340000	25.188557
0.350000	25.188557
0.360000	25.188557
0.370000	25.188557
0.380000	25.188557
0.390000	25.188557
0.400000	25.188557
0.410000	25.188557
0.420000	25.188557
0.430000	25.188557
0.440000	25.188557
0.450000	25.188557
0.460000	25.188557
0.470000	25.188557
0.480000	25.188557
0.490000	25.188557
0.500000	25.258298
0.510000	25.258298
0.520000	25.258298
0.530000	25.258298
0.540000	25.258298
0.550000	25.258298
0.560000	25.258298
0.570000	25.258298
0.580000	25.258298
0.590000	25.258298
0.600000	25.258298
0.610000	25.258298
0.620000	25.258298
0.630000	25.258298
0.640000	25.258298
0.650000	25.258298
0.660000	25.258298
0.670000	25.258298
0.680000	25.258298
0.690000	25.258298
0.700000	25.258298
0.710000	25.258298
0.720000	25.258298
0.730000	25.258298
0.740000	25.258298
0.750000	25.258298
0.760000	25.258298
0.770000	25.258298
0.780000	25.258298
0.790000	25.258298
0.800000	25.258298
0.810000	25.258298
0.820000	25.258298
0.830000	25.258298
0.840000	25.258298
0.850000	25.258298
0.860000	25.258298
0.870000	25.258298
0.880000	25.258298
0.890000	25.258298
0.900000	25.258298
0.910000	25.258298
0.920000	25.258298
0.930000	25.258298
0.940000	25.258298
0.950000	25.258298
0.960000	25.258298
0.970000	25.258298
0.980000	25.258298
0.990000	25.258298
1.000000	25.982288
1.010000	25.982288
1.020000	25.982288
1.030000	25.982288
1.040000	25.982288
1.050000	25.982288
1.060000	25.982288
1.070000	25.982288
1.080000	25.982288
1.090000	25.982288
1.100000	25.982288
1.110000	25.982288
1.120000	25.982288
1.130000	25.982288
1.140000	25.982288
1.150000	25.982288
1.160000	25.982288
1.170000	25.982288
1.180000	25.982288
1.190000	25.982288
1.200000	25.982288
1.210000	25.982288
1.220000	25.982288
1.230000	25.982288
1.240000	25.982288
1.250000	25.982288
1.260000	25.982288
1.270000	25.982288
1.280000	25.982288
1.290000	25.982288
1.300000	25.982288
1.310000	25.982288
1.320000	25.982288
1.330000	25.982288
1.340000	25.982288
1.350000	25.982288
1.360000	25.982288
1.370000	25.982288
1.380000	25.982288
1.390000	25.982288
1.400000	25.982288
1.410000	25.982288
1.420000	25.982288
1.430000	25.982288
1.440000	25.982288
1.450000	25.982288
1.460000	25.982288
1.470000	25.982288
1.480000	25.982288
1.490000	25.982288
1.500000	27.691212
1.510000	27.691212
1.520000	27.691212
1.530000	27.691212
1.540000	27.691212
1.550000	27.691212
1.560000	27.691212
1.570000	27.691212
1.580000	27.691212
1.590000	27.691212
1.600000	27.691212
1.610000	27.691212
1.620000	27.691212
1.630000	27.691212
1.640000	27.691212
1.650000	27.691212
1.660000	27.691212
1.670000	27.691212
1.680000	27.691212
1.690000	27.691212
1.700000	27.691212
1.710000	27.691212
1.720000	27.691212
1.730000	27.691212
1.740000	27.691212
1.750000	27.691212
1.760000	27.691212
1.770000	27.691212
1.780000	27.691212
1.790000	27.691212
1.800000	27.691212
1.810000	27.691212
1.820000	27.691212
1.830000	27.691212
1.840000	27.691212
1.850000	27.691212
1.860000	27.691212
1.870000	27.691212
1.880000	27.691212
1.890000	27.691212
1.900000	27.691212
1.910000	27.691212
1.920000	27.691212
1.930000	27.691212
1.940000	27.691212
1.950000	27.691212
1.960000	27.691212
1.970000	27.691212
1.980000	27.691212
1.990000	27.691212
2.000000	30.209615
2.010000	30.209615
2.020000	30.209615
2.030000	30.209615
2.040000	30.209615
2.050000	30.209615
2.060000	30.209615
2.070000	30.209615
2.080000	30.209615
2.090000	30.209615
2.100000	30.209615
2.110000	30.209615
2.120000	30.209615
2.130000	30.209615
2.140000	30.209615
2.150000	30.209615
2.160000	30.209615
2.170000	30.209615
2.180000	30.209615
2.190000	30.209615
2.200000	30.209615
2.210000	30.209615
2.220000	30.209615
2.230000	30.209615
2.240000	30.209615
2.250000	30.209615
2.260000	30.209615
2.270000	30.209615
2.280000	30.209615
2.290000	30.209615
2.300000	30.209615
2.310000	30.209615
2.320000	30.209615
2.330000	30.209615
2.340000	30.209615
2.350000	30.209615
2.360000	30.209615
2.370000	30.209615
2.380000	30.209615
2.390000	30.209615
2.400000	30.209615
2.410000	30.209615
2.420000	30.209615
2.430000	30.209615
2.440000	30.209615
2.450000	30.209615
2.460000	30.209615
2.470000	30.209615
2.480000	30.209615
2.490000	30.209615
2.500000	33.345969
2.510000	33.345969
2.520000	33.345969
2.530000	33.345969
2.540000	33.345969
2.550000	33.345969
2.560000	33.345969
2.570000	33.345969
2.580000	33.345969
2.590000	33.345969
2.600000	33.345969
2.610000	33.345969
2.620000	33.345969
2.630000	33.345969
2.640000	33.345969
2.650000	33.345969
2.660000	33.345969
2.670000	33.345969
2.680000	33.345969
2.690000	33.345969
2.700000	33.345969
2.710000	33.345969
2.720000	33.345969
2.730000	33.345969
2.740000	33.345969
2.750000	33.345969
2.760000	33.345969
2.770000	33.345969
2.780000	33.345969
2.790000	33.345969
2.800000	33.345969
2.810000	33.345969
2.820000	33.345969
2.830000	33.345969
2.840000	33.345969
2.850000	33.345969
2.860000	33.345969
2.870000	33.345969
2.880000	33.345969
2.890000	33.345969
2.900000	33.345969
2.910000	33.345969
2.920000	33.345969
2.930000	33.345969
2.940000	33.345969
2.950000	33.345969
2.960000	33.345969
2.970000	33.345969
2.980000	33.345969
2.990000	33.345969
3.000000	36.949797
3.010000	36.949797
3.020000	36.949797
3.030000	36.949797
3.040000	36.949797
3.050000	36.949797
3.060000	36.949797
3.070000	36.949797
3.080000	36.949797
3.090000	36.949797
3.100000	36.949797
3.110000	36.949797
3.120000	36.949797
3.130000	36.949797
3.140000	36.949797
3.150000	36.949797
3.160000	36.949797
3.170000	36.949797
3.180000	36.949797
3.190000	36.949797
3.200000	36.949797
3.210000	36.949797
3.220000	36.949797
3.230000	36.949797
3.240000	36.949797
3.250000	36.949797
3.260000	36.949797
3.270000	36.949797
3.280000	36.949797
3.290000	36.949797
3.300000	36.949797
3.310000	36.949797
3.320000	36.949797
3.330000	36.949797
3.340000	36.949797
3.350000	36.949797
3.360000	36.949797
3.370000	36.949797
3.380000	36.949797
3.390000	36.949797
3.400000	36.949797
3.410000	36.949797
3.420000	36.949797
3.430000	36.949797
3.440000	36.949797
3.450000	36.949797
3.460000	36.949797
3.470000	36.949797
3.480000	36.949797
3.490000	36.949797
3.500000	40.778779
3.510000	40.778779
3.520000	40.778779
3.530000	40.778779
3.540000	40.778779
3.550000	40.778779
3.560000	40.778779
3.570000	40.778779
3.580000	40.778779
3.590000	40.778779
3.600000	40.778779
3.610000	40.778779
3.620000	40.778779
3.630000	40.778779
3.640000	40.778779
3.650000	40.778779
3.660000	40.778779
3.670000	40.778779
3.680000	40.778779
3.690000	40.778779
3.700000	40.778779
3.710000	40.778779
3.720000	40.778779
3.730000	40.778779
3.740000	40.778779
3.750000	40.778779
3.760000	40.778779
3.770000	40.778779
3.780000	40.778779
3.790000	40.778779
3.800000	40.778779
3.810000	40.778779
3.820000	40.778779
3.830000	40.778779
3.840000	40.778779
3.850000	40.778779
3.860000	40.778779
3.870000	40.778779
3.880000	40.778779
3.890000	40.778779
3.900000	40.778779
3.910000	40.778779
3.920000	40.778779
3.930000	40.778779
3.940000	40.778779
3.950000	40.778779
3.960000	40.778779
3.970000	40.778779
3.980000	40.778779
3.990000	40.778779
4.000000	44.019731
4.010000	44.019731
4.020000	44.019731
4.030000	44.019731
4.040000	44.019731
4.050000	44.019731
4.060000	44.019731
4.070000	44.019731
4.080000	44.019731
4.090000	44.019731
4.100000	44.019731
4.110000	44.019731
4.120000	44.019731
4.130000	44.019731
4.140000	44.019731
4.150000	44.019731
4.160000	44.019731
4.170000	44.019731
4.180000	44.019731
4.190000	44.019731
4.200000	44.019731
4.210000	44.019731
4.220000	44.019731
4.230000	44.019731
4.240000	44.019731
4.250000	44.019731
4.260000	44.019731
4.270000	44.019731
4.280000	44.019731
4.290000	44.019731
4.300000	44.019731
4.310000	44.019731
4.320000	44.019731
4.330000	44.019731
4.340000	44.019731
4.350000	44.019731
4.360000	44.019731
4.370000	44.019731
4.380000	44.019731
4.390000	44.019731
4.400000	44.019731
4.410000	44.019731
4.420000	44.019731
4.430000	44.019731
4.440000	44.019731
4.450000	44.019731
4.460000	44.019731
4.470000	44.019731
4.480000	44.019731
4.490000	44.019731
4.500000	46.461433
4.510000	46.461433
4.520000	46.461433
4.530000	46.461433
4.540000	46.461433
4.550000	46.461433
4.560000	46.461433
4.570000	46.461433
4.580000	46.461433
4.590000	46.461433
4.600000	46.461433
4.610000	46.461433
4.620000	46.461433
4.630000	46.461433
4.640000	46.461433
4.650000	46.461433
4.660000	46.461433
4.670000	46.461433
4.680000	46.461433
4.690000	46.461433
4.700000	46.461433
4.710000	46.461433
4.720000	46.461433
4.730000	46.461433
4.740000	46.461433
4.750000	46.461433
4.760000	46.461433
4.770000	46.461433
4.780000	46.461433
4.790000	46.461433
4.800000	46.461433
4.810000	46.461433
4.820000	46.461433
4.830000	46.461433
4.840000	46.461433
4.850000	46.461433
4.860000	46.461433
4.870000	46.461433
4.880000	46.461433
4.890000	46.461433
4.900000	46.461433
4.910000	46.461433
4.920000	46.461433
4.930000	46.461433
4.940000	46.461433
4.950000	46.461433
4.960000	46.461433
4.970000	46.461433
4.980000	46.461433
4.990000	46.461433
5.000000	48.264138
5.010000	48.264138
5.020000	48.264138
5.030000	48.264138
5.040000	48.264138
5.050000	48.264138
5.060000	48.264138
5.070000	48.264138
5.080000	48.264138
5.090000	48.264138
5.100000	48.264138
5.110000	48.264138
5.120000	48.264138
5.130000	48.264138
5.140000	48.264138
5.150000	48.264138
5.160000	48.264138
5.170000	48.264138
5.180000	48.264138
5.190000	48.264138
5.200000	48.264138
5.210000	48.264138
5.220000	48.264138
5.230000	48.264138
5.240000	48.264138
5.250000	48.264138
5.260000	48.264138
5.270000	48.264138
5.280000	48.264138
5.290000	48.264138
5.300000	48.264138
5.310000	48.264138
5.320000	48.264138
5.330000	48.264138
5.340000	48.264138
5.350000	48.264138
5.360000	48.264138
5.370000	48.264138
5.380000	48.264138
5.390000	48.264138
5.400000	48.264138
5.410000	48.264138
5.420000	48.264138
5.430000	48.264138
5.440000	48.264138
5.450000	48.264138
5.460000	48.264138
5.470000	48.264138
5.480000	48.264138
5.490000	48.264138
5.500000	49.536328
5.510000	49.536328
5.520000	49.536328
5.530000	49.536328
5.540000	49.536328
5.550000	49.536328
5.560000	49.536328
5.570000	49.536328
5.580000	49.536328
5.590000	49.536328
5.600000	49.536328
5.610000	49.536328
5.620000	49.536328
5.630000	49.536328
5.640000	49.536328
5.650000	49.536328
5.660000	49.536328
5.670000	49.536328
5.680000	49.536328
5.690000	49.536328
5.700000	49.536328
5.710000	49.536328
5.720000	49.536328
5.730000	49.536328
5.740000	49.536328
5.750000	49.536328
5.760000	49.536328
5.770000	49.536328
5.780000	49.536328
5.790000	49.536328
5.800000	49.536328
5.810000	49.536328
5.820000	49.536328
5.830000	49.536328
5.840000	49.536328
5.850000	49.536328
5.860000	49.536328
5.870000	49.536328
5.880000	49.536328
5.890000	49.536328
5.900000	49.536328
5.910000	49.536328
5.920000	49.536328
5.930000	49.536328
5.940000	49.536328
5.950000	49.536328
5.960000	49.536328
5.970000	49.536328
5.980000	49.536328
5.990000	49.536328
6.000000	50.377852
6.010000	50.377852
6.020000	50.377852
6.030000	50.377852
6.040000	50.377852
6.050000	50.377852
6.060000	50.377852
6.070000	50.377852
6.080000	50.377852
6.090000	50.377852
6.100000	50.377852
6.110000	50.377852
6.120000	50.377852
6.130000	50.377852
6.140000	50.377852
6.150000	50.377852
6.160000	50.377852
6.170000	50.377852
6.180000	50.377852
6.190000	50.377852
6.200000	50.377852
6.210000	50.377852
6.220000	50.377852
6.230000	50.377852
6.240000	50.377852
6.250000	50.377852
6.260000	50.377852
6.270000	50.377852
6.280000	50.377852
6.290000	50.377852
6.300000	50.377852
6.310000	50.377852
6.320000	50.377852
6.330000	50.377852
6.340000	50.377852
6.350000	50.377852
6.360000	50.377852
6.370000	50.377852
6.380000	50.377852
6.390000	50.377852
6.400000	50.377852
6.410000	50.377852
6.420000	50.377852
6.430000	50.377852
6.440000	50.377852
6.450000	50.377852
6.460000	50.377852
6.470000	50.377852
6.480000	50.377852
6.490000	50.377852
6.500000	50.908340
6.510000	50.908340
6.520000	50.908340
6.530000	50.908340
6.540000	50.908340
6.550000	50.908340
6.560000	50.908340
6.570000	50.908340
6.580000	50.908340
6.590000	50.908340
6.600000	50.908340
6.610000	50.908340
6.620000	50.908340
6.630000	50.908340
6.640000	50.908340
6.650000	50.908340
6.660000	50.908340
6.670000	50.908340
6.680000	50.908340
6.690000	50.908340
6.700000	50.908340
6.710000	50.908340
6.720000	50.908340
6.730000	50.908340
6.740000	50.908340
6.750000	50.908340
6.760000	50.908340
6.770000	50.908340
6.780000	50.908340
6.790000	50.908340
6.800000	50.908340
6.810000	50.908340
6.820000	50.908340
6.830000	50.908340
6.840000	50.908340
6.850000	50.908340
6.860000	50.908340
6.870000	50.908340
6.880000	50.908340
6.890000	50.908340
6.900000	50.908340
6.910000	50.908340
6.920000	50.908340
6.930000	50.908340
6.940000	50.908340
6.950000	50.908340
6.960000	50.908340
6.970000	50.908340
6.980000	50.908340
6.990000	50.908340
7.000000	51.201633
7.010000	51.201633
7.020000	51.201633
7.030000	51.201633
7.040000	51.201633
7.050000	51.201633
7.060000	51.201633
7.070000	51.201633
7.080000	51.201633
7.090000	51.201633
7.100000	51.201633
7.110000	51.201633
7.120000	51.201633
7.130000	51.201633
7.140000	51.201633
7.150000	51.201633
7.160000	51.201633
7.170000	51.201633
7.180000	51.201633
7.190000	51.201633
7.200000	51.201633
7.210000	51.201633
7.220000	51.201633
7.230000	51.201633
7.240000	51.201633
7.250000	51.201633
7.260000	51.201633
7.270000	51.201633
7.280000	51.201633
7.290000	51.201633
7.300000	51.201633
7.310000	51.201633
7.320000	51.201633
7.330000	51.201633
7.340000	51.201633
7.350000	51.201633
7.360000	51.201633
7.370000	51.201633
7.380000	51.201633
7.390000	51.201633
7.400000	51.201633
7.410000	51.201633
7.420000	51.201633
7.430000	51.201633
7.440000	51.201633
7.450000	51.201633
7.460000	51.201633
7.470000	51.201633
7.480000	51.201633
7.490000	51.201633
7.500000	51.306569
7.510000	51.306569
7.520000	51.306569
7.530000	51.306569
7.540000	51.306569
7.550000	51.306569
7.560000	51.306569
7.570000	51.306569
7.580000	51.306569
7.590000	51.306569
7.600000	51.306569
7.610000	51.306569
7.620000	51.306569
7.630000	51.306569
7.640000	51.306569
7.650000	51.306569
7.660000	51.306569
7.670000	51.306569
7.680000	51.306569
7.690000	51.306569
7.700000	51.306569
7.710000	51.306569
7.720000	51.306569
7.730000	51.306569
7.740000	51.306569
7.750000	51.306569
7.760000	51.306569
7.770000	51.306569
7.780000	51.306569
7.790000	51.306569
7.800000	51.306569
7.810000	51.306569
7.820000	51.306569
7.830000	51.306569
7.840000	51.306569
7.850000	51.306569
7.860000	51.306569
7.870000	51.306569
7.880000	51.306569
7.890000	51.306569
7.900000	51.306569
7.910000	51.306569
7.920000	51.306569
7.930000	51.306569
7.940000	51.306569
7.950000	51.306569
7.960000	51.306569
7.970000	51.306569
7.980000	51.306569
7.990000	51.306569
8.000000	51.263611
8.010000	51.263611
8.020000	51.263611
8.030000	51.263611
8.040000	51.263611
8.050000	51.263611
8.060000	51.263611
8.070000	51.263611
8.080000	51.263611
8.090000	51.263611
8.100000	51.263611
8.110000	51.263611
8.120000	51.263611
8.130000	51.263611
8.140000	51.263611
8.150000	51.263611
8.160000	51.263611
8.170000	51.263611
8.180000	51.263611
8.190000	51.263611
8.200000	51.263611
8.210000	51.263611
8.220000	51.263611
8.230000	51.263611
8.240000	51.263611
8.250000	51.263611
8.260000	51.263611
8.270000	51.263611
8.280000	51.263611
8.290000	51.263611
8.300000	51.263611
8.310000	51.263611
8.320000	51.263611
8.330000	51.263611
8.340000	51.263611
8.350000	51.263611
8.360000	51.263611
8.370000	51.263611
8.380000	51.263611
8.390000	51.263611
8.400000	51.263611
8.410000	51.263611
8.420000	51.263611
8.430000	51.263611
8.440000	51.263611
8.450000	51.263611
8.460000	51.263611
8.470000	51.263611
8.480000	51.263611
8.490000	51.263611
8.500000	51.096999
8.510000	51.096999
8.520000	51.096999
8.530000	51.096999
8.540000	51.096999
8.550000	51.096999
8.560000	51.096999
8.570000	51.096999
8.580000	51.096999
8.590000	51.096999
8.600000	51.096999
8.610000	51.096999
8.620000	51.096999
8.630000	51.096999
8.640000	51.096999
8.650000	51.096999
8.660000	51.096999
8.670000	51.096999
8.680000	51.096999
8.690000	51.096999
8.700000	51.096999
8.710000	51.096999
8.720000	51.096999
8.730000	51.096999
8.740000	51.096999
8.750000	51.096999
8.760000	51.096999
8.770000	51.096999
8.780000	51.096999
8.790000	51.096999
8.800000	51.096999
8.810000	51.096999
8.820000	51.096999
8.830000	51.096999
8.840000	51.096999
8.850000	51.096999
8.860000	51.096999
8.870000	51.096999
8.880000	51.096999
8.890000	51.096999
8.900000	51.096999
8.910000	51.096999
8.920000	51.096999
8.930000	51.096999
8.940000	51.096999
8.950000	51.096999
8.960000	51.096999
8.970000	51.096999
8.980000	51.096999
8.990000	51.096999
9.000000	50.841700
9.010000	50.841700
9.020000	50.841700
9.030000	50.841700
9.040000	50.841700
9.050000	50.841700
9.060000	50.841700
9.070000	50.841700
9.080000	50.841700
9.090000	50.841700
9.100000	50.841700
9.110000	50.841700
9.120000	50.841700
9.130000	50.841700
9.140000	50.841700
9.150000	50.841700
9.160000	50.841700
9.170000	50.841700
9.180000	50.841700
9.190000	50.841700
9.200000	50.841700
9.210000	50.841700
9.220000	50.841700
9.230000	50.841700
9.240000	50.841700
9.250000	50.841700
9.260000	50.841700
9.270000	50.841700
9.280000	50.841700
9.290000	50.841700
9.300000	50.841700
9.310000	50.841700
9.320000	50.841700
9.330000	50.841700
9.340000	50.841700
9.350000	50.841700
9.360000	50.841700
9.370000	50.841700
9.380000	50.841700
9.390000	50.841700
9.400000	50.841700
9.410000	50.841700
9.420000	50.841700
9.430000	50.841700
9.440000	50.841700
9.450000	50.841700
9.460000	50.841700
9.470000	50.841700
9.480000	50.841700
9.490000	50.841700
9.500000	50.526775
9.510000	50.526775
9.520000	50.526775
9.530000	50.526775
9.540000	50.526775
9.550000	50.526775
9.560000	50.526775
9.570000	50.526775
9.580000	50.526775
9.590000	50.526775
9.600000	50.526775
9.610000	50.526775
9.620000	50.526775
9.630000	50.526775
9.640000	50.526775
9.650000	50.526775
9.660000	50.526775
9.670000	50.526775
9.680000	50.526775
9.690000	50.526775
9.700000	50.526775
9.710000	50.526775
9.720000	50.526775
9.730000	50.526775
9.740000	50.526775
9.750000	50.526775
9.760000	50.526775
9.770000	50.526775
9.780000	50.526775
9.790000	50.526775
9.800000	50.526775
9.810000	50.526775
9.820000	50.526775
9.830000	50.526775
9.840000	50.526775
9.850000	50.526775
9.860000	50.526775
9.870000	50.526775
9.880000	50.526775
9.890000	50.526775
9.900000	50.526775
9.910000	50.526775
9.920000	50.526775
9.930000	50.526775
9.940000	50.526775
9.950000	50.526775
9.960000	50.526775
9.970000	50.526775
9.980000	50.526775
9.990000	50.526775
10.000000	50.162718
10.010000	50.162718
10.020000	50.162718
10.030000	50.162718
10.040000	50.162718
10.050000	50.162718
10.060000	50.162718
10.070000	50.162718
10.080000	50.162718
10.090000	50.162718
10.100000	50.162718
10.110000	50.162718
10.120000	50.162718
10.130000	50.162718
10.140000	50.162718
10.150000	50.162718
10.160000	50.162718
10.170000	50.162718
10.180000	50.162718
10.190000	50.162718
10.200000	50.162718
10.210000	50.162718
10.220000	50.162718
10.230000	50.162718
10.240000	50.162718
10.250000	50.162718
10.260000	50.162718
10.270000	50.162718
10.280000	50.162718
10.290000	50.162718
10.300000	50.162718
10.310000	50.162718
10.320000	50.162718
10.330000	50.162718
10.340000	50.162718
10.350000	50.162718
10.360000	50.162718
10.370000	50.162718
10.380000	50.162718
10.390000	50.162718
10.400000	50.162718
10.410000	50.162718
10.420000	50.162718
10.430000	50.162718
10.440000	50.162718
10.450000	50.162718
10.460000	50.162718
10.470000	50.162718
10.480000	50.162718
10.490000	50.162718
10.500000	49.761635
10.510000	49.761635
10.520000	49.761635
10.530000	49.761635
10.540000	49.761635
10.550000	49.761635
10.560000	49.761635
10.570000	49.761635
10.580000	49.761635
10.590000	49.761635
10.600000	49.761635
10.610000	49.761635
10.620000	49.761635
10.630000	49.761635
10.640000	49.761635
10.650000	49.761635
10.660000	49.761635
10.670000	49.761635
10.680000	49.761635
10.690000	49.761635
10.700000	49.761635
10.710000	49.761635
10.720000	49.761635
10.730000	49.761635
10.740000	49.761635
10.750000	49.761635
10.760000	49.761635
10.770000	49.761635
10.780000	49.761635
10.790000	49.761635
10.800000	49.761635
10.810000	49.761635
10.820000	49.761635
10.830000	49.761635
10.840000	49.761635
10.850000	49.761635
10.860000	49.761635
10.870000	49.761635
10.880000	49.761635
10.890000	49.761635
10.900000	49.761635
10.910000	49.761635
10.920000	49.761635
10.930000	49.761635
10.940000	49.761635
10.950000	49.761635
10.960000	49.761635
10.970000	49.761635
10.980000	49.761635
10.990000	49.761635
11.000000	49.334268
11.010000	49.334268
11.020000	49.334268
11.030000	49.334268
11.040000	49.334268
11.050000	49.334268
11.060000	49.334268
11.070000	49.334268
11.080000	49.334268
11.090000	49.334268
11.100000	49.334268
11.110000	49.334268
11.120000	49.334268
11.130000	49.334268
11.140000	49.334268
11.150000	49.334268
11.160000	49.334268
11.170000	49.334268
11.180000	49.334268
11.190000	49.334268
11.200000	49.334268
11.210000	49.334268
11.220000	49.334268
11.230000	49.334268
11.240000	49.334268
11.250000	49.334268
11.260000	49.334268
11.270000	49.334268
11.280000	49.334268
11.290000	49.334268
11.300000	49.334268
11.310000	49.334268
11.320000	49.334268
11.330000	49.334268
11.340000	49.334268
11.350000	49.334268
11.360000	49.334268
11.370000	49.334268
11.380000	49.334268
11.390000	49.334268
11.400000	49.334268
11.410000	49.334268
11.420000	49.334268
11.430000	49.334268
11.440000	49.334268
11.450000	49.334268
11.460000	49.334268
11.470000	49.334268
11.480000	49.334268
11.490000	49.334268
11.500000	48.892417
11.510000	48.892417
11.520000	48.892417
11.530000	48.892417
11.540000	48.892417
11.550000	48.892417
11.560000	48.892417
11.570000	48.892417
11.580000	48.892417
11.590000	48.892417
11.600000	48.892417
11.610000	48.892417
11.620000	48.892417
11.630000	48.892417
11.640000	48.892417
11.650000	48.892417
11.660000	48.892417
11.670000	48.892417
11.680000	48.892417
11.690000	48.892417
11.700000	48.892417
11.710000	48.892417
11.720000	48.892417
11.730000	48.892417
11.740000	48.892417
11.750000	48.892417
11.760000	48.892417
11.770000	48.892417
11.780000	48.892417
11.790000	48.892417
11.800000	48.892417
11.810000	48.892417
11.820000	48.892417
11.830000	48.892417
11.840000	48.892417
11.850000	48.892417
11.860000	48.892417
11.870000	48.892417
11.880000	48.892417
11.890000	48.892417
11.900000	48.892417
11.910000	48.892417
11.920000	48.892417
11.930000	48.892417
11.940000	48.892417
11.950000	48.892417
11.960000	48.892417
11.970000	48.892417
11.980000	48.892417
11.990000	48.892417
12.000000	48.446100
12.010000	48.446100
12.020000	48.446100
12.030000	48.446100
12.040000	48.446100
12.050000	48.446100
12.060000	48.446100
12.070000	48.446100
12.080000	48.446100
12.090000	48.446100
12.100000	48.446100
12.110000	48.446100
12.120000	48.446100
12.130000	48.446100
12.140000	48.446100
12.150000	48.446100
12.160000	48.446100
12.170000	48.446100
12.180000	48.446100
12.190000	48.446100
12.200000	48.446100
12.210000	48.446100
12.220000	48.446100
12.230000	48.446100
12.240000	48.446100
12.250000	48.446100
12.260000	48.446100
12.270000	48.446100
12.280000	48.446100
12.290000	48.446100
12.300000	48.446100
12.310000	48.446100
12.320000	48.446100
12.330000	48.446100
12.340000	48.446100
12.350000	48.446100
12.360000	48.446100
12.370000	48.446100
12.380000	48.446100
12.390000	48.446100
12.400000	48.446100
12.410000	48.446100
12.420000	48.446100
12.430000	48.446100
12.440000	48.446100
12.450000	48.446100
12.460000	48.446100
12.470000	48.446100
12.480000	48.446100
12.490000	48.446100
12.500000	47.990566
12.510000	47.990566
12.520000	47.990566
12.530000	47.990566
12.540000	47.990566
12.550000	47.990566
12.560000	47.990566
12.570000	47.990566
12.580000	47.990566
12.590000	47.990566
12.600000	47.990566
12.610000	47.990566
12.620000	47.990566
12.630000	47.990566
12.640000	47.990566
12.650000	47.990566
12.660000	47.990566
12.670000	47.990566
12.680000	47.990566
12.690000	47.990566
12.700000	47.990566
12.710000	47.990566
12.720000	47.990566
12.730000	47.990566
12.740000	47.990566
12.750000	47.990566
12.760000	47.990566
12.770000	47.990566
12.780000	47.990566
12.790000	47.990566
12.800000	47.990566
12.810000	47.990566
12.820000	47.990566
12.830000	47.990566
12.840000	47.990566
12.850000	47.990566
12.860000	47.990566
12.870000	47.990566
12.880000	47.990566
12.890000	47.990566
12.900000	47.990566
12.910000	47.990566
12.920000	47.990566
12.930000	47.990566
12.940000	47.990566
12.950000	47.990566
12.960000	47.990566
12.970000	47.990566
12.980000	47.990566
12.990000	47.990566
13.000000	47.533420
13.010000	47.533420
13.020000	47.533420
13.030000	47.533420
13.040000	47.533420
13.050000	47.533420
13.060000	47.533420
13.070000	47.533420
13.080000	47.533420
13.090000	47.533420
13.100000	47.533420
13.110000	47.533420
13.120000	47.533420
13.130000	47.533420
13.140000	47.533420
13.150000	47.533420
13.160000	47.533420
13.170000	47.533420
13.180000	47.533420
13.190000	47.533420
13.200000	47.533420
13.210000	47.533420
13.220000	47.533420
13.230000	47.533420
13.240000	47.533420
13.250000	47.533420
13.260000	47.533420
13.270000	47.533420
13.280000	47.533420
13.290000	47.533420
13.300000	47.533420
13.310000	47.533420
13.320000	47.533420
13.330000	47.533420
13.340000	47.533420
13.350000	47.533420
13.360000	47.533420
13.370000	47.533420
13.380000	47.533420
13.390000	47.533420
13.400000	47.533420
13.410000	47.533420
13.420000	47.533420
13.430000	47.533420
13.440000	47.533420
13.450000	47.533420
13.460000	47.533420
13.470000	47.533420
13.480000	47.533420
13.490000	47.533420
13.500000	47.075274
13.510000	47.075274
13.520000	47.075274
13.530000	47.075274
13.540000	47.075274
13.550000	47.075274
13.560000	47.075274
13.570000	47.075274
13.580000	47.075274
13.590000	47.075274
13.600000	47.075274
13.610000	47.075274
13.620000	47.075274
13.630000	47.075274
13.640000	47.075274
13.650000	47.075274
13.660000	47.075274
13.670000	47.075274
13.680000	47.075274
13.690000	47.075274
13.700000	47.075274
13.710000	47.075274
13.720000	47.075274
13.730000	47.075274
13.740000	47.075274
13.750000	47.075274
13.760000	47.075274
13.770000	47.075274
13.780000	47.075274
13.790000	47.075274
13.800000	47.075274
13.810000	47.075274
13.820000	47.075274
13.830000	47.075274
13.840000	47.075274
13.850000	47.075274
13.860000	47.075274
13.870000	47.075274
13.880000	47.075274
13.890000	47.075274
13.900000	47.075274
13.910000	47.075274
13.920000	47.075274
13.930000	47.075274
13.940000	47.075274
13.950000	47.075274
13.960000	47.075274
13.970000	47.075274
13.980000	47.075274
13.990000	47.075274
14.000000	46.623508
14.010000	46.623508
14.020000	46.623508
14.030000	46.623508
14.040000	46.623508
14.050000	46.623508
14.060000	46.623508
14.070000	46.623508
14.080000	46.623508
14.090000	46.623508
14.100000	46.623508
14.110000	46.623508
14.120000	46.623508
14.130000	46.623508
14.140000	46.623508
14.150000	46.623508
14.160000	46.623508
14.170000	46.623508
14.180000	46.623508
14.190000	46.623508
14.200000	46.623508
14.210000	46.623508
14.220000	46.623508
14.230000	46.623508
14.240000	46.623508
14.250000	46.623508
14.260000	46.623508
14.270000	46.623508
14.280000	46.623508
14.290000	46.623508
14.300000	46.623508
14.310000	46.623508
14.320000	46.623508
14.330000	46.623508
14.340000	46.623508
14.350000	46.623508
14.360000	46.623508
14.370000	46.623508
14.380000	46.623508
14.390000	46.623508
14.400000	46.623508
14.410000	46.623508
14.420000	46.623508
14.430000	46.623508
14.440000	46.623508
14.450000	46.623508
14.460000	46.623508
14.470000	46.623508
14.480000	46.623508
14.490000	46.623508
14.500000	46.180558
14.510000	46.180558
14.520000	46.180558
14.530000	46.180558
14.540000	46.180558
14.550000	46.180558
14.560000	46.180558
14.570000	46.180558
14.580000	46.180558
14.590000	46.180558
14.600000	46.180558
14.610000	46.180558
14.620000	46.180558
14.630000	46.180558
14.640000	46.180558
14.650000	46.180558
14.660000	46.180558
14.670000	46.180558
14.680000	46.180558
14.690000	46.180558
14.700000	46.180558
14.710000	46.180558
14.720000	46.180558
14.730000	46.180558
14.740000	46.180558
14.750000	46.180558
14.760000	46.180558
14.770000	46.180558
14.780000	46.180558
14.790000	46.180558
14.800000	46.180558
14.810000	46.180558
14.820000	46.180558
14.830000	46.180558
14.840000	46.180558
14.850000	46.180558
14.860000	46.180558
14.870000	46.180558
14.880000	46.180558
14.890000	46.180558
14.900000	46.180558
14.910000	46.180558
14.920000	46.180558
14.930000	46.180558
14.940000	46.180558
14.950000	46.180558
14.960000	46.180558
14.970000	46.180558
14.980000	46.180558
14.990000	46.180558
15.000000	45.745223
15.010000	45.745223
15.020000	45.745223
15.030000	45.745223
15.040000	45.745223
15.050000	45.745223
15.060000	45.745223
15.070000	45.745223
15.080000	45.745223
15.090000	45.745223
15.100000	45.745223
15.110000	45.745223
15.120000	45.745223
15.130000	45.745223
15.140000	45.745223
15.150000	45.745223
15.160000	45.745223
15.170000	45.745223
15.180000	45.745223
15.190000	45.745223
15.200000	45.745223
15.210000	45.745223
15.220000	45.745223
15.230000	45.745223
15.240000	45.745223
15.250000	45.745223
15.260000	45.745223
15.270000	45.745223
15.280000	45.745223
15.290000	45.745223
15.300000	45.745223
15.310000	45.745223
15.320000	45.745223
15.330000	45.745223
15.340000	45.745223
15.350000	45.745223
15.360000	45.745223
15.370000	45.745223
15.380000	45.745223
15.390000	45.745223
15.400000	45.745223
15.410000	45.745223
15.420000	45.745223
15.430000	45.745223
15.440000	45.745223
15.450000	45.745223
15.460000	45.745223
15.470000	45.745223
15.480000	45.745223
15.490000	45.745223
15.500000	45.319352
15.510000	45.319352
15.520000	45.319352
15.530000	45.319352
15.540000	45.319352
15.550000	45.319352
15.560000	45.319352
15.570000	45.319352
15.580000	45.319352
15.590000	45.319352
15.600000	45.319352
15.610000	45.319352
15.620000	45.319352
15.630000	45.319352
15.640000	45.319352
15.650000	45.319352
15.660000	45.319352
15.670000	45.319352
15.680000	45.319352
15.690000	45.319352
15.700000	45.319352
15.710000	45.319352
15.720000	45.319352
15.730000	45.319352
15.740000	45.319352
15.750000	45.319352
15.760000	45.319352
15.770000	45.319352
15.780000	45.319352
15.790000	45.319352
15.800000	45.319352
15.810000	45.319352
15.820000	45.319352
15.830000	45.319352
15.840000	45.319352
15.850000	45.319352
15.860000	45.319352
15.870000	45.319352
15.880000	45.319352
15.890000	45.319352
15.900000	45.319352
15.910000	45.319352
15.920000	45.319352
15.930000	45.319352
15.940000	45.319352
15.950000	45.319352
15.960000	45.319352
15.970000	45.319352
15.980000	45.319352
15.990000	45.319352
16.000000	44.903880
16.010000	44.903880
16.020000	44.903880
16.030000	44.903880
16.040000	44.903880
16.050000	44.903880
16.060000	44.903880
16.070000	44.903880
16.080000	44.903880
16.090000	44.903880
16.100000	44.903880
16.110000	44.903880
16.120000	44.903880
16.130000	44.903880
16.140000	44.903880
16.150000	44.903880
16.160000	44.903880
16.170000	44.903880
16.180000	44.903880
16.190000	44.903880
16.200000	44.903880
16.210000	44.903880
16.220000	44.903880
16.230000	44.903880
16.240000	44.903880
16.250000	44.903880
16.260000	44.903880
16.270000	44.903880
16.280000	44.903880
16.290000	44.903880
16.300000	44.903880
16.310000	44.903880
16.320000	44.903880
16.330000	44.903880
16.340000	44.903880
16.350000	44.903880
16.360000	44.903880
16.370000	44.903880
16.380000	44.903880
16.390000	44.903880
16.400000	44.903880
16.410000	44.903880
16.420000	44.903880
16.430000	44.903880
16.440000	44.903880
16.450000	44.903880
16.460000	44.903880
16.470000	44.903880
16.480000	44.903880
16.490000	44.903880
16.500000	44.497083
16.510000	44.497083
16.520000	44.497083
16.530000	44.497083
16.540000	44.497083
16.550000	44.497083
16.560000	44.497083
16.570000	44.497083
16.580000	44.497083
16.590000	44.497083
16.600000	44.497083
16.610000	44.497083
16.620000	44.497083
16.630000	44.497083
16.640000	44.497083
16.650000	44.497083
16.660000	44.497083
16.670000	44.497083
16.680000	44.497083
16.690000	44.497083
16.700000	44.497083
16.710000	44.497083
16.720000	44.497083
16.730000	44.497083
16.740000	44.497083
16.750000	44.497083
16.760000	44.497083
16.770000	44.497083
16.780000	44.497083
16.790000	44.497083
16.800000	44.497083
16.810000	44.497083
16.820000	44.497083
16.830000	44.497083
16.840000	44.497083
16.850000	44.497083
16.860000	44.497083
16.870000	44.497083
16.880000	44.497083
16.890000	44.497083
16.900000	44.497083
16.910000	44.497083
16.920000	44.497083
16.930000	44.497083
16.940000	44.497083
16.950000	44.497083
16.960000	44.497083
16.970000	44.497083
16.980000	44.497083
16.990000	44.497083
17.000000	44.102446
17.010000	44.102446
17.020000	44.102446
17.030000	44.102446
17.040000	44.102446
17.050000	44.102446
17.060000	44.102446
17.070000	44.102446
17.080000	44.102446
17.090000	44.102446
17.100000	44.102446
17.110000	44.102446
17.120000	44.102446
17.130000	44.102446
17.140000	44.102446
17.150000	44.102446
17.160000	44.102446
17.170000	44.102446
17.180000	44.102446
17.190000	44.102446
17.200000	44.102446
17.210000	44.102446
17.220000	44.102446
17.230000	44.102446
17.240000	44.102446
17.250000	44.102446
17.260000	44.102446
17.270000	44.102446
17.280000	44.102446
17.290000	44.102446
17.300000	44.102446
17.310000	44.102446
17.320000	44.102446
17.330000	44.102446
17.340000	44.102446
17.350000	44.102446
17.360000	44.102446
17.370000	44.102446
17.380000	44.102446
17.390000	44.102446
17.400000	44.102446
17.410000	44.102446
17.420000	44.102446
17.430000	44.102446
17.440000	44.102446
17.450000	44.102446
17.460000	44.102446
17.470000	44.102446
17.480000	44.102446
17.490000	44.102446
17.500000	43.717120
17.510000	43.717120
17.520000	43.717120
17.530000	43.717120
17.540000	43.717120
17.550000	43.717120
17.560000	43.717120
17.570000	43.717120
17.580000	43.717120
17.590000	43.717120
17.600000	43.717120
17.610000	43.717120
17.620000	43.717120
17.630000	43.717120
17.640000	43.717120
17.650000	43.717120
17.660000	43.717120
17.670000	43.717120
17.680000	43.717120
17.690000	43.717120
17.700000	43.717120
17.710000	43.717120
17.720000	43.717120
17.730000	43.717120
17.740000	43.717120
17.750000	43.717120
17.760000	43.717120
17.770000	43.717120
17.780000	43.717120
17.790000	43.717120
17.800000	43.717120
17.810000	43.717120
17.820000	43.717120
17.830000	43.717120
17.840000	43.717120
17.850000	43.717120
17.860000	43.717120
17.870000	43.717120
17.880000	43.717120
17.890000	43.717120
17.900000	43.717120
17.910000	43.717120
17.920000	43.717120
17.930000	43.717120
17.940000	43.717120
17.950000	43.717120
17.960000	43.717120
17.970000	43.717120
17.980000	43.717120
17.990000	43.717120
