LabVIEW Measurement	
Writer_Version	2
Reader_Version	2
Separator	Tab
Decimal_Separator	.
Multi_Headings	No
X_Columns	One
Time_Pref	Absolute
Operator	biomech-dyno
Date	2023/05/23
Time	16:26:31.1792034999998606061
***End_of_Header***	
	
Channels	1	
Samples	10	
Date	2023/05/23	
Time	18:35:33.4392674999997259465	
X_Dimension	Time	
X0	0.0000000000000000E+0	
Delta_X	0.010000	
***End_of_Header***		
X_Value	Untitled	Comment
0.000000	24.944612
0.010000	24.944612
0.020000	24.944612
0.030000	24.944612
0.040000	24.944612
0.050000	24.944612
0.060000	24.944612
0.070000	24.944612
0.080000	24.944612
0.090000	24.944612
0.100000	24.944612
0.110000	24.944612
0.120000	24.944612
0.130000	24.944612
0.140000	24.944612
0.150000	24.944612
0.160000	24.944612
0.170000	24.944612
0.180000	24.944612
0.190000	24.944612
0.200000	24.944612
0.210000	24.944612
0.220000	24.944612
0.230000	24.944612
0.240000	24.944612
0.250000	24.944612
0.260000	24.944612
0.270000	24.944612
0.280000	24.944612
0.290000	24.944612
0.300000	24.944612
0.310000	24.944612
0.320000	24.944612
0.330000	24.944612
0.340000	24.944612
0.350000	24.944612
0.360000	24.944612
0.370000	24.944612
0.380000	24.944612
0.390000	24.944612
0.400000	24.944612
0.410000	24.944612
0.420000	24.944612
0.430000	24.944612
0.440000	24.944612
0.450000	24.944612
0.460000	24.944612
0.470000	24.944612
0.480000	24.944612
0.490000	24.944612
0.500000	24.950639
0.510000	24.950639
0.520000	24.950639
0.530000	24.950639
0.540000	24.950639
0.550000	24.950639
0.560000	24.950639
0.570000	24.950639
0.580000	24.950639
0.590000	24.950639
0.600000	24.950639
0.610000	24.950639
0.620000	24.950639
0.630000	24.950639
0.640000	24.950639
0.650000	24.950639
0.660000	24.950639
0.670000	24.950639
0.680000	24.950639
0.690000	24.950639
0.700000	24.950639
0.710000	24.950639
0.720000	24.950639
0.730000	24.950639
0.740000	24.950639
0.750000	24.950639
0.760000	24.950639
0.770000	24.950639
0.780000	24.950639
0.790000	24.950639
0.800000	24.950639
0.810000	24.950639
0.820000	24.950639
0.830000	24.950639
0.840000	24.950639
0.850000	24.950639
0.860000	24.950639
0.870000	24.950639
0.880000	24.950639
0.890000	24.950639
0.900000	24.950639
0.910000	24.950639
0.920000	24.950639
0.930000	24.950639
0.940000	24.950639
0.950000	24.950639
0.960000	24.950639
0.970000	24.950639
0.980000	24.950639
0.990000	24.950639
1.000000	24.956321
1.010000	24.956321
1.020000	24.956321
1.030000	24.956321
1.040000	24.956321
1.050000	24.956321
1.060000	24.956321
1.070000	24.956321
1.080000	24.956321
1.090000	24.956321
1.100000	24.956321
1.110000	24.956321
1.120000	24.956321
1.130000	24.956321
1.140000	24.956321
1.150000	24.956321
1.160000	24.956321
1.170000	24.956321
1.180000	24.956321
1.190000	24.956321
1.200000	24.956321
1.210000	24.956321
1.220000	24.956321
1.230000	24.956321
1.240000	24.956321
1.250000	24.956321
1.260000	24.956321
1.270000	24.956321
1.280000	24.956321
1.290000	24.956321
1.300000	24.956321
1.310000	24.956321
1.320000	24.956321
1.330000	24.956321
1.340000	24.956321
1.350000	24.956321
1.360000	24.956321
1.370000	24.956321
1.380000	24.956321
1.390000	24.956321
1.400000	24.956321
1.410000	24.956321
1.420000	24.956321
1.430000	24.956321
1.440000	24.956321
1.450000	24.956321
1.460000	24.956321
1.470000	24.956321
1.480000	24.956321
1.490000	24.956321
1.500000	24.963219
1.510000	24.963219
1.520000	24.963219
1.530000	24.963219
1.540000	24.963219
1.550000	24.963219
1.560000	24.963219
1.570000	24.963219
1.580000	24.963219
1.590000	24.963219
1.600000	24.963219
1.610000	24.963219
1.620000	24.963219
1.630000	24.963219
1.640000	24.963219
1.650000	24.963219
1.660000	24.963219
1.670000	24.963219
1.680000	24.963219
1.690000	24.963219
1.700000	24.963219
1.710000	24.963219
1.720000	24.963219
1.730000	24.963219
1.740000	24.963219
1.750000	24.963219
1.760000	24.963219
1.770000	24.963219
1.780000	24.963219
1.790000	24.963219
1.800000	24.963219
1.810000	24.963219
1.820000	24.963219
1.830000	24.963219
1.840000	24.963219
1.850000	24.963219
1.860000	24.963219
1.870000	24.963219
1.880000	24.963219
1.890000	24.963219
1.900000	24.963219
1.910000	24.963219
1.920000	24.963219
1.930000	24.963219
1.940000	24.963219
1.950000	24.963219
1.960000	24.963219
1.970000	24.963219
1.980000	24.963219
1.990000	24.963219
2.000000	24.971886
2.010000	24.971886
2.020000	24.971886
2.030000	24.971886
2.040000	24.971886
2.050000	24.971886
2.060000	24.971886
2.070000	24.971886
2.080000	24.971886
2.090000	24.971886
2.100000	24.971886
2.110000	24.971886
2.120000	24.971886
2.130000	24.971886
2.140000	24.971886
2.150000	24.971886
2.160000	24.971886
2.170000	24.971886
2.180000	24.971886
2.190000	24.971886
2.200000	24.971886
2.210000	24.971886
2.220000	24.971886
2.230000	24.971886
2.240000	24.971886
2.250000	24.971886
2.260000	24.971886
2.270000	24.971886
2.280000	24.971886
2.290000	24.971886
2.300000	24.971886
2.310000	24.971886
2.320000	24.971886
2.330000	24.971886
2.340000	24.971886
2.350000	24.971886
2.360000	24.971886
2.370000	24.971886
2.380000	24.971886
2.390000	24.971886
2.400000	24.971886
2.410000	24.971886
2.420000	24.971886
2.430000	24.971886
2.440000	24.971886
2.450000	24.971886
2.460000	24.971886
2.470000	24.971886
2.480000	24.971886
2.490000	24.971886
2.500000	24.981423
2.510000	24.981423
2.520000	24.981423
2.530000	24.981423
2.540000	24.981423
2.550000	24.981423
2.560000	24.981423
2.570000	24.981423
2.580000	24.981423
2.590000	24.981423
2.600000	24.981423
2.610000	24.981423
2.620000	24.981423
2.630000	24.981423
2.640000	24.981423
2.650000	24.981423
2.660000	24.981423
2.670000	24.981423
2.680000	24.981423
2.690000	24.981423
2.700000	24.981423
2.710000	24.981423
2.720000	24.981423
2.730000	24.981423
2.740000	24.981423
2.750000	24.981423
2.760000	24.981423
2.770000	24.981423
2.780000	24.981423
2.790000	24.981423
2.800000	24.981423
2.810000	24.981423
2.820000	24.981423
2.830000	24.981423
2.840000	24.981423
2.850000	24.981423
2.860000	24.981423
2.870000	24.981423
2.880000	24.981423
2.890000	24.981423
2.900000	24.981423
2.910000	24.981423
2.920000	24.981423
2.930000	24.981423
2.940000	24.981423
2.950000	24.981423
2.960000	24.981423
2.970000	24.981423
2.980000	24.981423
2.990000	24.981423
3.000000	24.992114
3.010000	24.992114
3.020000	24.992114
3.030000	24.992114
3.040000	24.992114
3.050000	24.992114
3.060000	24.992114
3.070000	24.992114
3.080000	24.992114
3.090000	24.992114
3.100000	24.992114
3.110000	24.992114
3.120000	24.992114
3.130000	24.992114
3.140000	24.992114
3.150000	24.992114
3.160000	24.992114
3.170000	24.992114
3.180000	24.992114
3.190000	24.992114
3.200000	24.992114
3.210000	24.992114
3.220000	24.992114
3.230000	24.992114
3.240000	24.992114
3.250000	24.992114
3.260000	24.992114
3.270000	24.992114
3.280000	24.992114
3.290000	24.992114
3.300000	24.992114
3.310000	24.992114
3.320000	24.992114
3.330000	24.992114
3.340000	24.992114
3.350000	24.992114
3.360000	24.992114
3.370000	24.992114
3.380000	24.992114
3.390000	24.992114
3.400000	24.992114
3.410000	24.992114
3.420000	24.992114
3.430000	24.992114
3.440000	24.992114
3.450000	24.992114
3.460000	24.992114
3.470000	24.992114
3.480000	24.992114
3.490000	24.992114
3.500000	25.004278
3.510000	25.004278
3.520000	25.004278
3.530000	25.004278
3.540000	25.004278
3.550000	25.004278
3.560000	25.004278
3.570000	25.004278
3.580000	25.004278
3.590000	25.004278
3.600000	25.004278
3.610000	25.004278
3.620000	25.004278
3.630000	25.004278
3.640000	25.004278
3.650000	25.004278
3.660000	25.004278
3.670000	25.004278
3.680000	25.004278
3.690000	25.004278
3.700000	25.004278
3.710000	25.004278
3.720000	25.004278
3.730000	25.004278
3.740000	25.004278
3.750000	25.004278
3.760000	25.004278
3.770000	25.004278
3.780000	25.004278
3.790000	25.004278
3.800000	25.004278
3.810000	25.004278
3.820000	25.004278
3.830000	25.004278
3.840000	25.004278
3.850000	25.004278
3.860000	25.004278
3.870000	25.004278
3.880000	25.004278
3.890000	25.004278
3.900000	25.004278
3.910000	25.004278
3.920000	25.004278
3.930000	25.004278
3.940000	25.004278
3.950000	25.004278
3.960000	25.004278
3.970000	25.004278
3.980000	25.004278
3.990000	25.004278
4.000000	25.016714
4.010000	25.016714
4.020000	25.016714
4.030000	25.016714
4.040000	25.016714
4.050000	25.016714
4.060000	25.016714
4.070000	25.016714
4.080000	25.016714
4.090000	25.016714
4.100000	25.016714
4.110000	25.016714
4.120000	25.016714
4.130000	25.016714
4.140000	25.016714
4.150000	25.016714
4.160000	25.016714
4.170000	25.016714
4.180000	25.016714
4.190000	25.016714
4.200000	25.016714
4.210000	25.016714
4.220000	25.016714
4.230000	25.016714
4.240000	25.016714
4.250000	25.016714
4.260000	25.016714
4.270000	25.016714
4.280000	25.016714
4.290000	25.016714
4.300000	25.016714
4.310000	25.016714
4.320000	25.016714
4.330000	25.016714
4.340000	25.016714
4.350000	25.016714
4.360000	25.016714
4.370000	25.016714
4.380000	25.016714
4.390000	25.016714
4.400000	25.016714
4.410000	25.016714
4.420000	25.016714
4.430000	25.016714
4.440000	25.016714
4.450000	25.016714
4.460000	25.016714
4.470000	25.016714
4.480000	25.016714
4.490000	25.016714
4.500000	25.027648
4.510000	25.027648
4.520000	25.027648
4.530000	25.027648
4.540000	25.027648
4.550000	25.027648
4.560000	25.027648
4.570000	25.027648
4.580000	25.027648
4.590000	25.027648
4.600000	25.027648
4.610000	25.027648
4.620000	25.027648
4.630000	25.027648
4.640000	25.027648
4.650000	25.027648
4.660000	25.027648
4.670000	25.027648
4.680000	25.027648
4.690000	25.027648
4.700000	25.027648
4.710000	25.027648
4.720000	25.027648
4.730000	25.027648
4.740000	25.027648
4.750000	25.027648
4.760000	25.027648
4.770000	25.027648
4.780000	25.027648
4.790000	25.027648
4.800000	25.027648
4.810000	25.027648
4.820000	25.027648
4.830000	25.027648
4.840000	25.027648
4.850000	25.027648
4.860000	25.027648
4.870000	25.027648
4.880000	25.027648
4.890000	25.027648
4.900000	25.027648
4.910000	25.027648
4.920000	25.027648
4.930000	25.027648
4.940000	25.027648
4.950000	25.027648
4.960000	25.027648
4.970000	25.027648
4.980000	25.027648
4.990000	25.027648
5.000000	25.037053
5.010000	25.037053
5.020000	25.037053
5.030000	25.037053
5.040000	25.037053
5.050000	25.037053
5.060000	25.037053
5.070000	25.037053
5.080000	25.037053
5.090000	25.037053
5.100000	25.037053
5.110000	25.037053
5.120000	25.037053
5.130000	25.037053
5.140000	25.037053
5.150000	25.037053
5.160000	25.037053
5.170000	25.037053
5.180000	25.037053
5.190000	25.037053
5.200000	25.037053
5.210000	25.037053
5.220000	25.037053
5.230000	25.037053
5.240000	25.037053
5.250000	25.037053
5.260000	25.037053
5.270000	25.037053
5.280000	25.037053
5.290000	25.037053
5.300000	25.037053
5.310000	25.037053
5.320000	25.037053
5.330000	25.037053
5.340000	25.037053
5.350000	25.037053
5.360000	25.037053
5.370000	25.037053
5.380000	25.037053
5.390000	25.037053
5.400000	25.037053
5.410000	25.037053
5.420000	25.037053
5.430000	25.037053
5.440000	25.037053
5.450000	25.037053
5.460000	25.037053
5.470000	25.037053
5.480000	25.037053
5.490000	25.037053
5.500000	25.043991
5.510000	25.043991
5.520000	25.043991
5.530000	25.043991
5.540000	25.043991
5.550000	25.043991
5.560000	25.043991
5.570000	25.043991
5.580000	25.043991
5.590000	25.043991
5.600000	25.043991
5.610000	25.043991
5.620000	25.043991
5.630000	25.043991
5.640000	25.043991
5.650000	25.043991
5.660000	25.043991
5.670000	25.043991
5.680000	25.043991
5.690000	25.043991
5.700000	25.043991
5.710000	25.043991
5.720000	25.043991
5.730000	25.043991
5.740000	25.043991
5.750000	25.043991
5.760000	25.043991
5.770000	25.043991
5.780000	25.043991
5.790000	25.043991
5.800000	25.043991
5.810000	25.043991
5.820000	25.043991
5.830000	25.043991
5.840000	25.043991
5.850000	25.043991
5.860000	25.043991
5.870000	25.043991
5.880000	25.043991
5.890000	25.043991
5.900000	25.043991
5.910000	25.043991
5.920000	25.043991
5.930000	25.043991
5.940000	25.043991
5.950000	25.043991
5.960000	25.043991
5.970000	25.043991
5.980000	25.043991
5.990000	25.043991
6.000000	25.049524
6.010000	25.049524
6.020000	25.049524
6.030000	25.049524
6.040000	25.049524
6.050000	25.049524
6.060000	25.049524
6.070000	25.049524
6.080000	25.049524
6.090000	25.049524
6.100000	25.049524
6.110000	25.049524
6.120000	25.049524
6.130000	25.049524
6.140000	25.049524
6.150000	25.049524
6.160000	25.049524
6.170000	25.049524
6.180000	25.049524
6.190000	25.049524
6.200000	25.049524
6.210000	25.049524
6.220000	25.049524
6.230000	25.049524
6.240000	25.049524
6.250000	25.049524
6.260000	25.049524
6.270000	25.049524
6.280000	25.049524
6.290000	25.049524
6.300000	25.049524
6.310000	25.049524
6.320000	25.049524
6.330000	25.049524
6.340000	25.049524
6.350000	25.049524
6.360000	25.049524
6.370000	25.049524
6.380000	25.049524
6.390000	25.049524
6.400000	25.049524
6.410000	25.049524
6.420000	25.049524
6.430000	25.049524
6.440000	25.049524
6.450000	25.049524
6.460000	25.049524
6.470000	25.049524
6.480000	25.049524
6.490000	25.049524
6.500000	25.054530
6.510000	25.054530
6.520000	25.054530
6.530000	25.054530
6.540000	25.054530
6.550000	25.054530
6.560000	25.054530
6.570000	25.054530
6.580000	25.054530
6.590000	25.054530
6.600000	25.054530
6.610000	25.054530
6.620000	25.054530
6.630000	25.054530
6.640000	25.054530
6.650000	25.054530
6.660000	25.054530
6.670000	25.054530
6.680000	25.054530
6.690000	25.054530
6.700000	25.054530
6.710000	25.054530
6.720000	25.054530
6.730000	25.054530
6.740000	25.054530
6.750000	25.054530
6.760000	25.054530
6.770000	25.054530
6.780000	25.054530
6.790000	25.054530
6.800000	25.054530
6.810000	25.054530
6.820000	25.054530
6.830000	25.054530
6.840000	25.054530
6.850000	25.054530
6.860000	25.054530
6.870000	25.054530
6.880000	25.054530
6.890000	25.054530
6.900000	25.054530
6.910000	25.054530
6.920000	25.054530
6.930000	25.054530
6.940000	25.054530
6.950000	25.054530
6.960000	25.054530
6.970000	25.054530
6.980000	25.054530
6.990000	25.054530
7.000000	25.059028
7.010000	25.059028
7.020000	25.059028
7.030000	25.059028
7.040000	25.059028
7.050000	25.059028
7.060000	25.059028
7.070000	25.059028
7.080000	25.059028
7.090000	25.059028
7.100000	25.059028
7.110000	25.059028
7.120000	25.059028
7.130000	25.059028
7.140000	25.059028
7.150000	25.059028
7.160000	25.059028
7.170000	25.059028
7.180000	25.059028
7.190000	25.059028
7.200000	25.059028
7.210000	25.059028
7.220000	25.059028
7.230000	25.059028
7.240000	25.059028
7.250000	25.059028
7.260000	25.059028
7.270000	25.059028
7.280000	25.059028
7.290000	25.059028
7.300000	25.059028
7.310000	25.059028
7.320000	25.059028
7.330000	25.059028
7.340000	25.059028
7.350000	25.059028
7.360000	25.059028
7.370000	25.059028
7.380000	25.059028
7.390000	25.059028
7.400000	25.059028
7.410000	25.059028
7.420000	25.059028
7.430000	25.059028
7.440000	25.059028
7.450000	25.059028
7.460000	25.059028
7.470000	25.059028
7.480000	25.059028
7.490000	25.059028
7.500000	25.062311
7.510000	25.062311
7.520000	25.062311
7.530000	25.062311
7.540000	25.062311
7.550000	25.062311
7.560000	25.062311
7.570000	25.062311
7.580000	25.062311
7.590000	25.062311
7.600000	25.062311
7.610000	25.062311
7.620000	25.062311
7.630000	25.062311
7.640000	25.062311
7.650000	25.062311
7.660000	25.062311
7.670000	25.062311
7.680000	25.062311
7.690000	25.062311
7.700000	25.062311
7.710000	25.062311
7.720000	25.062311
7.730000	25.062311
7.740000	25.062311
7.750000	25.062311
7.760000	25.062311
7.770000	25.062311
7.780000	25.062311
7.790000	25.062311
7.800000	25.062311
7.810000	25.062311
7.820000	25.062311
7.830000	25.062311
7.840000	25.062311
7.850000	25.062311
7.860000	25.062311
7.870000	25.062311
7.880000	25.062311
7.890000	25.062311
7.900000	25.062311
7.910000	25.062311
7.920000	25.062311
7.930000	25.062311
7.940000	25.062311
7.950000	25.062311
7.960000	25.062311
7.970000	25.062311
7.980000	25.062311
7.990000	25.062311
8.000000	25.065171
8.010000	25.065171
8.020000	25.065171
8.030000	25.065171
8.040000	25.065171
8.050000	25.065171
8.060000	25.065171
8.070000	25.065171
8.080000	25.065171
8.090000	25.065171
8.100000	25.065171
8.110000	25.065171
8.120000	25.065171
8.130000	25.065171
8.140000	25.065171
8.150000	25.065171
8.160000	25.065171
8.170000	25.065171
8.180000	25.065171
8.190000	25.065171
8.200000	25.065171
8.210000	25.065171
8.220000	25.065171
8.230000	25.065171
8.240000	25.065171
8.250000	25.065171
8.260000	25.065171
8.270000	25.065171
8.280000	25.065171
8.290000	25.065171
8.300000	25.065171
8.310000	25.065171
8.320000	25.065171
8.330000	25.065171
8.340000	25.065171
8.350000	25.065171
8.360000	25.065171
8.370000	25.065171
8.380000	25.065171
8.390000	25.065171
8.400000	25.065171
8.410000	25.065171
8.420000	25.065171
8.430000	25.065171
8.440000	25.065171
8.450000	25.065171
8.460000	25.065171
8.470000	25.065171
8.480000	25.065171
8.490000	25.065171
8.500000	25.066868
8.510000	25.066868
8.520000	25.066868
8.530000	25.066868
8.540000	25.066868
8.550000	25.066868
8.560000	25.066868
8.570000	25.066868
8.580000	25.066868
8.590000	25.066868
8.600000	25.066868
8.610000	25.066868
8.620000	25.066868
8.630000	25.066868
8.640000	25.066868
8.650000	25.066868
8.660000	25.066868
8.670000	25.066868
8.680000	25.066868
8.690000	25.066868
8.700000	25.066868
8.710000	25.066868
8.720000	25.066868
8.730000	25.066868
8.740000	25.066868
8.750000	25.066868
8.760000	25.066868
8.770000	25.066868
8.780000	25.066868
8.790000	25.066868
8.800000	25.066868
8.810000	25.066868
8.820000	25.066868
8.830000	25.066868
8.840000	25.066868
8.850000	25.066868
8.860000	25.066868
8.870000	25.066868
8.880000	25.066868
8.890000	25.066868
8.900000	25.066868
8.910000	25.066868
8.920000	25.066868
8.930000	25.066868
8.940000	25.066868
8.950000	25.066868
8.960000	25.066868
8.970000	25.066868
8.980000	25.066868
8.990000	25.066868
9.000000	25.067307
9.010000	25.067307
9.020000	25.067307
9.030000	25.067307
9.040000	25.067307
9.050000	25.067307
9.060000	25.067307
9.070000	25.067307
9.080000	25.067307
9.090000	25.067307
9.100000	25.067307
9.110000	25.067307
9.120000	25.067307
9.130000	25.067307
9.140000	25.067307
9.150000	25.067307
9.160000	25.067307
9.170000	25.067307
9.180000	25.067307
9.190000	25.067307
9.200000	25.067307
9.210000	25.067307
9.220000	25.067307
9.230000	25.067307
9.240000	25.067307
9.250000	25.067307
9.260000	25.067307
9.270000	25.067307
9.280000	25.067307
9.290000	25.067307
9.300000	25.067307
9.310000	25.067307
9.320000	25.067307
9.330000	25.067307
9.340000	25.067307
9.350000	25.067307
9.360000	25.067307
9.370000	25.067307
9.380000	25.067307
9.390000	25.067307
9.400000	25.067307
9.410000	25.067307
9.420000	25.067307
9.430000	25.067307
9.440000	25.067307
9.450000	25.067307
9.460000	25.067307
9.470000	25.067307
9.480000	25.067307
9.490000	25.067307
9.500000	25.068151
9.510000	25.068151
9.520000	25.068151
9.530000	25.068151
9.540000	25.068151
9.550000	25.068151
9.560000	25.068151
9.570000	25.068151
9.580000	25.068151
9.590000	25.068151
9.600000	25.068151
9.610000	25.068151
9.620000	25.068151
9.630000	25.068151
9.640000	25.068151
9.650000	25.068151
9.660000	25.068151
9.670000	25.068151
9.680000	25.068151
9.690000	25.068151
9.700000	25.068151
9.710000	25.068151
9.720000	25.068151
9.730000	25.068151
9.740000	25.068151
9.750000	25.068151
9.760000	25.068151
9.770000	25.068151
9.780000	25.068151
9.790000	25.068151
9.800000	25.068151
9.810000	25.068151
9.820000	25.068151
9.830000	25.068151
9.840000	25.068151
9.850000	25.068151
9.860000	25.068151
9.870000	25.068151
9.880000	25.068151
9.890000	25.068151
9.900000	25.068151
9.910000	25.068151
9.920000	25.068151
9.930000	25.068151
9.940000	25.068151
9.950000	25.068151
9.960000	25.068151
9.970000	25.068151
9.980000	25.068151
9.990000	25.068151
10.000000	25.068186
10.010000	25.068186
10.020000	25.068186
10.030000	25.068186
10.040000	25.068186
10.050000	25.068186
10.060000	25.068186
10.070000	25.068186
10.080000	25.068186
10.090000	25.068186
10.100000	25.068186
10.110000	25.068186
10.120000	25.068186
10.130000	25.068186
10.140000	25.068186
10.150000	25.068186
10.160000	25.068186
10.170000	25.068186
10.180000	25.068186
10.190000	25.068186
10.200000	25.068186
10.210000	25.068186
10.220000	25.068186
10.230000	25.068186
10.240000	25.068186
10.250000	25.068186
10.260000	25.068186
10.270000	25.068186
10.280000	25.068186
10.290000	25.068186
10.300000	25.068186
10.310000	25.068186
10.320000	25.068186
10.330000	25.068186
10.340000	25.068186
10.350000	25.068186
10.360000	25.068186
10.370000	25.068186
10.380000	25.068186
10.390000	25.068186
10.400000	25.068186
10.410000	25.068186
10.420000	25.068186
10.430000	25.068186
10.440000	25.068186
10.450000	25.068186
10.460000	25.068186
10.470000	25.068186
10.480000	25.068186
10.490000	25.068186
10.500000	25.067488
10.510000	25.067488
10.520000	25.067488
10.530000	25.067488
10.540000	25.067488
10.550000	25.067488
10.560000	25.067488
10.570000	25.067488
10.580000	25.067488
10.590000	25.067488
10.600000	25.067488
10.610000	25.067488
10.620000	25.067488
10.630000	25.067488
10.640000	25.067488
10.650000	25.067488
10.660000	25.067488
10.670000	25.067488
10.680000	25.067488
10.690000	25.067488
10.700000	25.067488
10.710000	25.067488
10.720000	25.067488
10.730000	25.067488
10.740000	25.067488
10.750000	25.067488
10.760000	25.067488
10.770000	25.067488
10.780000	25.067488
10.790000	25.067488
10.800000	25.067488
10.810000	25.067488
10.820000	25.067488
10.830000	25.067488
10.840000	25.067488
10.850000	25.067488
10.860000	25.067488
10.870000	25.067488
10.880000	25.067488
10.890000	25.067488
10.900000	25.067488
10.910000	25.067488
10.920000	25.067488
10.930000	25.067488
10.940000	25.067488
10.950000	25.067488
10.960000	25.067488
10.970000	25.067488
10.980000	25.067488
10.990000	25.067488
11.000000	25.066627
11.010000	25.066627
11.020000	25.066627
11.030000	25.066627
11.040000	25.066627
11.050000	25.066627
11.060000	25.066627
11.070000	25.066627
11.080000	25.066627
11.090000	25.066627
11.100000	25.066627
11.110000	25.066627
11.120000	25.066627
11.130000	25.066627
11.140000	25.066627
11.150000	25.066627
11.160000	25.066627
11.170000	25.066627
11.180000	25.066627
11.190000	25.066627
11.200000	25.066627
11.210000	25.066627
11.220000	25.066627
11.230000	25.066627
11.240000	25.066627
11.250000	25.066627
11.260000	25.066627
11.270000	25.066627
11.280000	25.066627
11.290000	25.066627
11.300000	25.066627
11.310000	25.066627
11.320000	25.066627
11.330000	25.066627
11.340000	25.066627
11.350000	25.066627
11.360000	25.066627
11.370000	25.066627
11.380000	25.066627
11.390000	25.066627
11.400000	25.066627
11.410000	25.066627
11.420000	25.066627
11.430000	25.066627
11.440000	25.066627
11.450000	25.066627
11.460000	25.066627
11.470000	25.066627
11.480000	25.066627
11.490000	25.066627
11.500000	25.065705
11.510000	25.065705
11.520000	25.065705
11.530000	25.065705
11.540000	25.065705
11.550000	25.065705
11.560000	25.065705
11.570000	25.065705
11.580000	25.065705
11.590000	25.065705
11.600000	25.065705
11.610000	25.065705
11.620000	25.065705
11.630000	25.065705
11.640000	25.065705
11.650000	25.065705
11.660000	25.065705
11.670000	25.065705
11.680000	25.065705
11.690000	25.065705
11.700000	25.065705
11.710000	25.065705
11.720000	25.065705
11.730000	25.065705
11.740000	25.065705
11.750000	25.065705
11.760000	25.065705
11.770000	25.065705
11.780000	25.065705
11.790000	25.065705
11.800000	25.065705
11.810000	25.065705
11.820000	25.065705
11.830000	25.065705
11.840000	25.065705
11.850000	25.065705
11.860000	25.065705
11.870000	25.065705
11.880000	25.065705
11.890000	25.065705
11.900000	25.065705
11.910000	25.065705
11.920000	25.065705
11.930000	25.065705
11.940000	25.065705
11.950000	25.065705
11.960000	25.065705
11.970000	25.065705
11.980000	25.065705
11.990000	25.065705
12.000000	25.064275
12.010000	25.064275
12.020000	25.064275
12.030000	25.064275
12.040000	25.064275
12.050000	25.064275
12.060000	25.064275
12.070000	25.064275
12.080000	25.064275
12.090000	25.064275
12.100000	25.064275
12.110000	25.064275
12.120000	25.064275
12.130000	25.064275
12.140000	25.064275
12.150000	25.064275
12.160000	25.064275
12.170000	25.064275
12.180000	25.064275
12.190000	25.064275
12.200000	25.064275
12.210000	25.064275
12.220000	25.064275
12.230000	25.064275
12.240000	25.064275
12.250000	25.064275
12.260000	25.064275
12.270000	25.064275
12.280000	25.064275
12.290000	25.064275
12.300000	25.064275
12.310000	25.064275
12.320000	25.064275
12.330000	25.064275
12.340000	25.064275
12.350000	25.064275
12.360000	25.064275
12.370000	25.064275
12.380000	25.064275
12.390000	25.064275
12.400000	25.064275
12.410000	25.064275
12.420000	25.064275
12.430000	25.064275
12.440000	25.064275
12.450000	25.064275
12.460000	25.064275
12.470000	25.064275
12.480000	25.064275
12.490000	25.064275
12.500000	25.062931
12.510000	25.062931
12.520000	25.062931
12.530000	25.062931
12.540000	25.062931
12.550000	25.062931
12.560000	25.062931
12.570000	25.062931
12.580000	25.062931
12.590000	25.062931
12.600000	25.062931
12.610000	25.062931
12.620000	25.062931
12.630000	25.062931
12.640000	25.062931
12.650000	25.062931
12.660000	25.062931
12.670000	25.062931
12.680000	25.062931
12.690000	25.062931
12.700000	25.062931
12.710000	25.062931
12.720000	25.062931
12.730000	25.062931
12.740000	25.062931
12.750000	25.062931
12.760000	25.062931
12.770000	25.062931
12.780000	25.062931
12.790000	25.062931
12.800000	25.062931
12.810000	25.062931
12.820000	25.062931
12.830000	25.062931
12.840000	25.062931
12.850000	25.062931
12.860000	25.062931
12.870000	25.062931
12.880000	25.062931
12.890000	25.062931
12.900000	25.062931
12.910000	25.062931
12.920000	25.062931
12.930000	25.062931
12.940000	25.062931
12.950000	25.062931
12.960000	25.062931
12.970000	25.062931
12.980000	25.062931
12.990000	25.062931
13.000000	25.061561
13.010000	25.061561
13.020000	25.061561
13.030000	25.061561
13.040000	25.061561
13.050000	25.061561
13.060000	25.061561
13.070000	25.061561
13.080000	25.061561
13.090000	25.061561
13.100000	25.061561
13.110000	25.061561
13.120000	25.061561
13.130000	25.061561
13.140000	25.061561
13.150000	25.061561
13.160000	25.061561
13.170000	25.061561
13.180000	25.061561
13.190000	25.061561
13.200000	25.061561
13.210000	25.061561
13.220000	25.061561
13.230000	25.061561
13.240000	25.061561
13.250000	25.061561
13.260000	25.061561
13.270000	25.061561
13.280000	25.061561
13.290000	25.061561
13.300000	25.061561
13.310000	25.061561
13.320000	25.061561
13.330000	25.061561
13.340000	25.061561
13.350000	25.061561
13.360000	25.061561
13.370000	25.061561
13.380000	25.061561
13.390000	25.061561
13.400000	25.061561
13.410000	25.061561
13.420000	25.061561
13.430000	25.061561
13.440000	25.061561
13.450000	25.061561
13.460000	25.061561
13.470000	25.061561
13.480000	25.061561
13.490000	25.061561
13.500000	25.059519
13.510000	25.059519
13.520000	25.059519
13.530000	25.059519
13.540000	25.059519
13.550000	25.059519
13.560000	25.059519
13.570000	25.059519
13.580000	25.059519
13.590000	25.059519
13.600000	25.059519
13.610000	25.059519
13.620000	25.059519
13.630000	25.059519
13.640000	25.059519
13.650000	25.059519
13.660000	25.059519
13.670000	25.059519
13.680000	25.059519
13.690000	25.059519
13.700000	25.059519
13.710000	25.059519
13.720000	25.059519
13.730000	25.059519
13.740000	25.059519
13.750000	25.059519
13.760000	25.059519
13.770000	25.059519
13.780000	25.059519
13.790000	25.059519
13.800000	25.059519
13.810000	25.059519
13.820000	25.059519
13.830000	25.059519
13.840000	25.059519
13.850000	25.059519
13.860000	25.059519
13.870000	25.059519
13.880000	25.059519
13.890000	25.059519
13.900000	25.059519
13.910000	25.059519
13.920000	25.059519
13.930000	25.059519
13.940000	25.059519
13.950000	25.059519
13.960000	25.059519
13.970000	25.059519
13.980000	25.059519
13.990000	25.059519
14.000000	25.057408
14.010000	25.057408
14.020000	25.057408
14.030000	25.057408
14.040000	25.057408
14.050000	25.057408
14.060000	25.057408
14.070000	25.057408
14.080000	25.057408
14.090000	25.057408
14.100000	25.057408
14.110000	25.057408
14.120000	25.057408
14.130000	25.057408
14.140000	25.057408
14.150000	25.057408
14.160000	25.057408
14.170000	25.057408
14.180000	25.057408
14.190000	25.057408
14.200000	25.057408
14.210000	25.057408
14.220000	25.057408
14.230000	25.057408
14.240000	25.057408
14.250000	25.057408
14.260000	25.057408
14.270000	25.057408
14.280000	25.057408
14.290000	25.057408
14.300000	25.057408
14.310000	25.057408
14.320000	25.057408
14.330000	25.057408
14.340000	25.057408
14.350000	25.057408
14.360000	25.057408
14.370000	25.057408
14.380000	25.057408
14.390000	25.057408
14.400000	25.057408
14.410000	25.057408
14.420000	25.057408
14.430000	25.057408
14.440000	25.057408
14.450000	25.057408
14.460000	25.057408
14.470000	25.057408
14.480000	25.057408
14.490000	25.057408
14.500000	25.055892
14.510000	25.055892
14.520000	25.055892
14.530000	25.055892
14.540000	25.055892
14.550000	25.055892
14.560000	25.055892
14.570000	25.055892
14.580000	25.055892
14.590000	25.055892
14.600000	25.055892
14.610000	25.055892
14.620000	25.055892
14.630000	25.055892
14.640000	25.055892
14.650000	25.055892
14.660000	25.055892
14.670000	25.055892
14.680000	25.055892
14.690000	25.055892
14.700000	25.055892
14.710000	25.055892
14.720000	25.055892
14.730000	25.055892
14.740000	25.055892
14.750000	25.055892
14.760000	25.055892
14.770000	25.055892
14.780000	25.055892
14.790000	25.055892
14.800000	25.055892
14.810000	25.055892
14.820000	25.055892
14.830000	25.055892
14.840000	25.055892
14.850000	25.055892
14.860000	25.055892
14.870000	25.055892
14.880000	25.055892
14.890000	25.055892
14.900000	25.055892
14.910000	25.055892
14.920000	25.055892
14.930000	25.055892
14.940000	25.055892
14.950000	25.055892
14.960000	25.055892
14.970000	25.055892
14.980000	25.055892
14.990000	25.055892
15.000000	25.053488
15.010000	25.053488
15.020000	25.053488
15.030000	25.053488
15.040000	25.053488
15.050000	25.053488
15.060000	25.053488
15.070000	25.053488
15.080000	25.053488
15.090000	25.053488
15.100000	25.053488
15.110000	25.053488
15.120000	25.053488
15.130000	25.053488
15.140000	25.053488
15.150000	25.053488
15.160000	25.053488
15.170000	25.053488
15.180000	25.053488
15.190000	25.053488
15.200000	25.053488
15.210000	25.053488
15.220000	25.053488
15.230000	25.053488
15.240000	25.053488
15.250000	25.053488
15.260000	25.053488
15.270000	25.053488
15.280000	25.053488
15.290000	25.053488
15.300000	25.053488
15.310000	25.053488
15.320000	25.053488
15.330000	25.053488
15.340000	25.053488
15.350000	25.053488
15.360000	25.053488
15.370000	25.053488
15.380000	25.053488
15.390000	25.053488
15.400000	25.053488
15.410000	25.053488
15.420000	25.053488
15.430000	25.053488
15.440000	25.053488
15.450000	25.053488
15.460000	25.053488
15.470000	25.053488
15.480000	25.053488
15.490000	25.053488
15.500000	25.051273
15.510000	25.051273
15.520000	25.051273
15.530000	25.051273
15.540000	25.051273
15.550000	25.051273
15.560000	25.051273
15.570000	25.051273
15.580000	25.051273
15.590000	25.051273
15.600000	25.051273
15.610000	25.051273
15.620000	25.051273
15.630000	25.051273
15.640000	25.051273
15.650000	25.051273
15.660000	25.051273
15.670000	25.051273
15.680000	25.051273
15.690000	25.051273
15.700000	25.051273
15.710000	25.051273
15.720000	25.051273
15.730000	25.051273
15.740000	25.051273
15.750000	25.051273
15.760000	25.051273
15.770000	25.051273
15.780000	25.051273
15.790000	25.051273
15.800000	25.051273
15.810000	25.051273
15.820000	25.051273
15.830000	25.051273
15.840000	25.051273
15.850000	25.051273
15.860000	25.051273
15.870000	25.051273
15.880000	25.051273
15.890000	25.051273
15.900000	25.051273
15.910000	25.051273
15.920000	25.051273
15.930000	25.051273
15.940000	25.051273
15.950000	25.051273
15.960000	25.051273
15.970000	25.051273
15.980000	25.051273
15.990000	25.051273
16.000000	25.048740
16.010000	25.048740
16.020000	25.048740
16.030000	25.048740
16.040000	25.048740
16.050000	25.048740
16.060000	25.048740
16.070000	25.048740
16.080000	25.048740
16.090000	25.048740
16.100000	25.048740
16.110000	25.048740
16.120000	25.048740
16.130000	25.048740
16.140000	25.048740
16.150000	25.048740
16.160000	25.048740
16.170000	25.048740
16.180000	25.048740
16.190000	25.048740
16.200000	25.048740
16.210000	25.048740
16.220000	25.048740
16.230000	25.048740
16.240000	25.048740
16.250000	25.048740
16.260000	25.048740
16.270000	25.048740
16.280000	25.048740
16.290000	25.048740
16.300000	25.048740
16.310000	25.048740
16.320000	25.048740
16.330000	25.048740
16.340000	25.048740
16.350000	25.048740
16.360000	25.048740
16.370000	25.048740
16.380000	25.048740
16.390000	25.048740
16.400000	25.048740
16.410000	25.048740
16.420000	25.048740
16.430000	25.048740
16.440000	25.048740
16.450000	25.048740
16.460000	25.048740
16.470000	25.048740
16.480000	25.048740
16.490000	25.048740
16.500000	25.046163
16.510000	25.046163
16.520000	25.046163
16.530000	25.046163
16.540000	25.046163
16.550000	25.046163
16.560000	25.046163
16.570000	25.046163
16.580000	25.046163
16.590000	25.046163
16.600000	25.046163
16.610000	25.046163
16.620000	25.046163
16.630000	25.046163
16.640000	25.046163
16.650000	25.046163
16.660000	25.046163
16.670000	25.046163
16.680000	25.046163
16.690000	25.046163
16.700000	25.046163
16.710000	25.046163
16.720000	25.046163
16.730000	25.046163
16.740000	25.046163
16.750000	25.046163
16.760000	25.046163
16.770000	25.046163
16.780000	25.046163
16.790000	25.046163
16.800000	25.046163
16.810000	25.046163
16.820000	25.046163
16.830000	25.046163
16.840000	25.046163
16.850000	25.046163
16.860000	25.046163
16.870000	25.046163
16.880000	25.046163
16.890000	25.046163
16.900000	25.046163
16.910000	25.046163
16.920000	25.046163
16.930000	25.046163
16.940000	25.046163
16.950000	25.046163
16.960000	25.046163
16.970000	25.046163
16.980000	25.046163
16.990000	25.046163
17.000000	25.043362
17.010000	25.043362
17.020000	25.043362
17.030000	25.043362
17.040000	25.043362
17.050000	25.043362
17.060000	25.043362
17.070000	25.043362
17.080000	25.043362
17.090000	25.043362
17.100000	25.043362
17.110000	25.043362
17.120000	25.043362
17.130000	25.043362
17.140000	25.043362
17.150000	25.043362
17.160000	25.043362
17.170000	25.043362
17.180000	25.043362
17.190000	25.043362
17.200000	25.043362
17.210000	25.043362
17.220000	25.043362
17.230000	25.043362
17.240000	25.043362
17.250000	25.043362
17.260000	25.043362
17.270000	25.043362
17.280000	25.043362
17.290000	25.043362
17.300000	25.043362
17.310000	25.043362
17.320000	25.043362
17.330000	25.043362
17.340000	25.043362
17.350000	25.043362
17.360000	25.043362
17.370000	25.043362
17.380000	25.043362
17.390000	25.043362
17.400000	25.043362
17.410000	25.043362
17.420000	25.043362
17.430000	25.043362
17.440000	25.043362
17.450000	25.043362
17.460000	25.043362
17.470000	25.043362
17.480000	25.043362
17.490000	25.043362
17.500000	25.040457
17.510000	25.040457
17.520000	25.040457
17.530000	25.040457
17.540000	25.040457
17.550000	25.040457
17.560000	25.040457
17.570000	25.040457
17.580000	25.040457
17.590000	25.040457
17.600000	25.040457
17.610000	25.040457
17.620000	25.040457
17.630000	25.040457
17.640000	25.040457
17.650000	25.040457
17.660000	25.040457
17.670000	25.040457
17.680000	25.040457
17.690000	25.040457
17.700000	25.040457
17.710000	25.040457
17.720000	25.040457
17.730000	25.040457
17.740000	25.040457
17.750000	25.040457
17.760000	25.040457
17.770000	25.040457
17.780000	25.040457
17.790000	25.040457
17.800000	25.040457
17.810000	25.040457
17.820000	25.040457
17.830000	25.040457
17.840000	25.040457
17.850000	25.040457
17.860000	25.040457
17.870000	25.040457
17.880000	25.040457
17.890000	25.040457
17.900000	25.040457
17.910000	25.040457
17.920000	25.040457
17.930000	25.040457
17.940000	25.040457
17.950000	25.040457
17.960000	25.040457
17.970000	25.040457
17.980000	25.040457
17.990000	25.040457
