LabVIEW Measurement	
Writer_Version	2
Reader_Version	2
Separator	Tab
Decimal_Separator	.
Multi_Headings	No
X_Columns	One
Time_Pref	Absolute
Operator	biomech-dyno
Date	2023/05/23
Time	16:26:31.1792034999998606061
***End_of_Header***	
	
Channels	1	
Samples	10	
Date	2023/05/23	
Time	18:56:25.2274273999998356361	
X_Dimension	Time	
X0	0.0000000000000000E+0	
Delta_X	0.010000	
***End_of_Header***		
X_Value	Untitled	Comment
0.000000	25.109155
0.010000	25.109155
0.020000	25.109155
0.030000	25.109155
0.040000	25.109155
0.050000	25.109155
0.060000	25.109155
0.070000	25.109155
0.080000	25.109155
0.090000	25.109155
0.100000	25.109155
0.110000	25.109155
0.120000	25.109155
0.130000	25.109155
0.140000	25.109155
0.150000	25.109155
0.160000	25.109155
0.170000	25.109155
0.180000	25.109155
0.190000	25.109155
0.200000	25.109155
0.210000	25.109155
0.220000	25.109155
0.230000	25.109155
0.240000	25.109155
0.250000	25.109155
0.260000	25.109155
0.270000	25.109155
0.280000	25.109155
0.290000	25.109155
0.300000	25.109155
0.310000	25.109155
0.320000	25.109155
0.330000	25.109155
0.340000	25.109155
0.350000	25.109155
0.360000	25.109155
0.370000	25.109155
0.380000	25.109155
0.390000	25.109155
0.400000	25.109155
0.410000	25.109155
0.420000	25.109155
0.430000	25.109155
0.440000	25.109155
0.450000	25.109155
0.460000	25.109155
0.470000	25.109155
0.480000	25.109155
0.490000	25.109155
0.500000	25.154578
0.510000	25.154578
0.520000	25.154578
0.530000	25.154578
0.540000	25.154578
0.550000	25.154578
0.560000	25.154578
0.570000	25.154578
0.580000	25.154578
0.590000	25.154578
0.600000	25.154578
0.610000	25.154578
0.620000	25.154578
0.630000	25.154578
0.640000	25.154578
0.650000	25.154578
0.660000	25.154578
0.670000	25.154578
0.680000	25.154578
0.690000	25.154578
0.700000	25.154578
0.710000	25.154578
0.720000	25.154578
0.730000	25.154578
0.740000	25.154578
0.750000	25.154578
0.760000	25.154578
0.770000	25.154578
0.780000	25.154578
0.790000	25.154578
0.800000	25.154578
0.810000	25.154578
0.820000	25.154578
0.830000	25.154578
0.840000	25.154578
0.850000	25.154578
0.860000	25.154578
0.870000	25.154578
0.880000	25.154578
0.890000	25.154578
0.900000	25.154578
0.910000	25.154578
0.920000	25.154578
0.930000	25.154578
0.940000	25.154578
0.950000	25.154578
0.960000	25.154578
0.970000	25.154578
0.980000	25.154578
0.990000	25.154578
1.000000	25.624229
1.010000	25.624229
1.020000	25.624229
1.030000	25.624229
1.040000	25.624229
1.050000	25.624229
1.060000	25.624229
1.070000	25.624229
1.080000	25.624229
1.090000	25.624229
1.100000	25.624229
1.110000	25.624229
1.120000	25.624229
1.130000	25.624229
1.140000	25.624229
1.150000	25.624229
1.160000	25.624229
1.170000	25.624229
1.180000	25.624229
1.190000	25.624229
1.200000	25.624229
1.210000	25.624229
1.220000	25.624229
1.230000	25.624229
1.240000	25.624229
1.250000	25.624229
1.260000	25.624229
1.270000	25.624229
1.280000	25.624229
1.290000	25.624229
1.300000	25.624229
1.310000	25.624229
1.320000	25.624229
1.330000	25.624229
1.340000	25.624229
1.350000	25.624229
1.360000	25.624229
1.370000	25.624229
1.380000	25.624229
1.390000	25.624229
1.400000	25.624229
1.410000	25.624229
1.420000	25.624229
1.430000	25.624229
1.440000	25.624229
1.450000	25.624229
1.460000	25.624229
1.470000	25.624229
1.480000	25.624229
1.490000	25.624229
1.500000	26.722960
1.510000	26.722960
1.520000	26.722960
1.530000	26.722960
1.540000	26.722960
1.550000	26.722960
1.560000	26.722960
1.570000	26.722960
1.580000	26.722960
1.590000	26.722960
1.600000	26.722960
1.610000	26.722960
1.620000	26.722960
1.630000	26.722960
1.640000	26.722960
1.650000	26.722960
1.660000	26.722960
1.670000	26.722960
1.680000	26.722960
1.690000	26.722960
1.700000	26.722960
1.710000	26.722960
1.720000	26.722960
1.730000	26.722960
1.740000	26.722960
1.750000	26.722960
1.760000	26.722960
1.770000	26.722960
1.780000	26.722960
1.790000	26.722960
1.800000	26.722960
1.810000	26.722960
1.820000	26.722960
1.830000	26.722960
1.840000	26.722960
1.850000	26.722960
1.860000	26.722960
1.870000	26.722960
1.880000	26.722960
1.890000	26.722960
1.900000	26.722960
1.910000	26.722960
1.920000	26.722960
1.930000	26.722960
1.940000	26.722960
1.950000	26.722960
1.960000	26.722960
1.970000	26.722960
1.980000	26.722960
1.990000	26.722960
2.000000	28.341487
2.010000	28.341487
2.020000	28.341487
2.030000	28.341487
2.040000	28.341487
2.050000	28.341487
2.060000	28.341487
2.070000	28.341487
2.080000	28.341487
2.090000	28.341487
2.100000	28.341487
2.110000	28.341487
2.120000	28.341487
2.130000	28.341487
2.140000	28.341487
2.150000	28.341487
2.160000	28.341487
2.170000	28.341487
2.180000	28.341487
2.190000	28.341487
2.200000	28.341487
2.210000	28.341487
2.220000	28.341487
2.230000	28.341487
2.240000	28.341487
2.250000	28.341487
2.260000	28.341487
2.270000	28.341487
2.280000	28.341487
2.290000	28.341487
2.300000	28.341487
2.310000	28.341487
2.320000	28.341487
2.330000	28.341487
2.340000	28.341487
2.350000	28.341487
2.360000	28.341487
2.370000	28.341487
2.380000	28.341487
2.390000	28.341487
2.400000	28.341487
2.410000	28.341487
2.420000	28.341487
2.430000	28.341487
2.440000	28.341487
2.450000	28.341487
2.460000	28.341487
2.470000	28.341487
2.480000	28.341487
2.490000	28.341487
2.500000	30.348694
2.510000	30.348694
2.520000	30.348694
2.530000	30.348694
2.540000	30.348694
2.550000	30.348694
2.560000	30.348694
2.570000	30.348694
2.580000	30.348694
2.590000	30.348694
2.600000	30.348694
2.610000	30.348694
2.620000	30.348694
2.630000	30.348694
2.640000	30.348694
2.650000	30.348694
2.660000	30.348694
2.670000	30.348694
2.680000	30.348694
2.690000	30.348694
2.700000	30.348694
2.710000	30.348694
2.720000	30.348694
2.730000	30.348694
2.740000	30.348694
2.750000	30.348694
2.760000	30.348694
2.770000	30.348694
2.780000	30.348694
2.790000	30.348694
2.800000	30.348694
2.810000	30.348694
2.820000	30.348694
2.830000	30.348694
2.840000	30.348694
2.850000	30.348694
2.860000	30.348694
2.870000	30.348694
2.880000	30.348694
2.890000	30.348694
2.900000	30.348694
2.910000	30.348694
2.920000	30.348694
2.930000	30.348694
2.940000	30.348694
2.950000	30.348694
2.960000	30.348694
2.970000	30.348694
2.980000	30.348694
2.990000	30.348694
3.000000	32.666351
3.010000	32.666351
3.020000	32.666351
3.030000	32.666351
3.040000	32.666351
3.050000	32.666351
3.060000	32.666351
3.070000	32.666351
3.080000	32.666351
3.090000	32.666351
3.100000	32.666351
3.110000	32.666351
3.120000	32.666351
3.130000	32.666351
3.140000	32.666351
3.150000	32.666351
3.160000	32.666351
3.170000	32.666351
3.180000	32.666351
3.190000	32.666351
3.200000	32.666351
3.210000	32.666351
3.220000	32.666351
3.230000	32.666351
3.240000	32.666351
3.250000	32.666351
3.260000	32.666351
3.270000	32.666351
3.280000	32.666351
3.290000	32.666351
3.300000	32.666351
3.310000	32.666351
3.320000	32.666351
3.330000	32.666351
3.340000	32.666351
3.350000	32.666351
3.360000	32.666351
3.370000	32.666351
3.380000	32.666351
3.390000	32.666351
3.400000	32.666351
3.410000	32.666351
3.420000	32.666351
3.430000	32.666351
3.440000	32.666351
3.450000	32.666351
3.460000	32.666351
3.470000	32.666351
3.480000	32.666351
3.490000	32.666351
3.500000	35.157608
3.510000	35.157608
3.520000	35.157608
3.530000	35.157608
3.540000	35.157608
3.550000	35.157608
3.560000	35.157608
3.570000	35.157608
3.580000	35.157608
3.590000	35.157608
3.600000	35.157608
3.610000	35.157608
3.620000	35.157608
3.630000	35.157608
3.640000	35.157608
3.650000	35.157608
3.660000	35.157608
3.670000	35.157608
3.680000	35.157608
3.690000	35.157608
3.700000	35.157608
3.710000	35.157608
3.720000	35.157608
3.730000	35.157608
3.740000	35.157608
3.750000	35.157608
3.760000	35.157608
3.770000	35.157608
3.780000	35.157608
3.790000	35.157608
3.800000	35.157608
3.810000	35.157608
3.820000	35.157608
3.830000	35.157608
3.840000	35.157608
3.850000	35.157608
3.860000	35.157608
3.870000	35.157608
3.880000	35.157608
3.890000	35.157608
3.900000	35.157608
3.910000	35.157608
3.920000	35.157608
3.930000	35.157608
3.940000	35.157608
3.950000	35.157608
3.960000	35.157608
3.970000	35.157608
3.980000	35.157608
3.990000	35.157608
4.000000	37.322681
4.010000	37.322681
4.020000	37.322681
4.030000	37.322681
4.040000	37.322681
4.050000	37.322681
4.060000	37.322681
4.070000	37.322681
4.080000	37.322681
4.090000	37.322681
4.100000	37.322681
4.110000	37.322681
4.120000	37.322681
4.130000	37.322681
4.140000	37.322681
4.150000	37.322681
4.160000	37.322681
4.170000	37.322681
4.180000	37.322681
4.190000	37.322681
4.200000	37.322681
4.210000	37.322681
4.220000	37.322681
4.230000	37.322681
4.240000	37.322681
4.250000	37.322681
4.260000	37.322681
4.270000	37.322681
4.280000	37.322681
4.290000	37.322681
4.300000	37.322681
4.310000	37.322681
4.320000	37.322681
4.330000	37.322681
4.340000	37.322681
4.350000	37.322681
4.360000	37.322681
4.370000	37.322681
4.380000	37.322681
4.390000	37.322681
4.400000	37.322681
4.410000	37.322681
4.420000	37.322681
4.430000	37.322681
4.440000	37.322681
4.450000	37.322681
4.460000	37.322681
4.470000	37.322681
4.480000	37.322681
4.490000	37.322681
4.500000	38.995446
4.510000	38.995446
4.520000	38.995446
4.530000	38.995446
4.540000	38.995446
4.550000	38.995446
4.560000	38.995446
4.570000	38.995446
4.580000	38.995446
4.590000	38.995446
4.600000	38.995446
4.610000	38.995446
4.620000	38.995446
4.630000	38.995446
4.640000	38.995446
4.650000	38.995446
4.660000	38.995446
4.670000	38.995446
4.680000	38.995446
4.690000	38.995446
4.700000	38.995446
4.710000	38.995446
4.720000	38.995446
4.730000	38.995446
4.740000	38.995446
4.750000	38.995446
4.760000	38.995446
4.770000	38.995446
4.780000	38.995446
4.790000	38.995446
4.800000	38.995446
4.810000	38.995446
4.820000	38.995446
4.830000	38.995446
4.840000	38.995446
4.850000	38.995446
4.860000	38.995446
4.870000	38.995446
4.880000	38.995446
4.890000	38.995446
4.900000	38.995446
4.910000	38.995446
4.920000	38.995446
4.930000	38.995446
4.940000	38.995446
4.950000	38.995446
4.960000	38.995446
4.970000	38.995446
4.980000	38.995446
4.990000	38.995446
5.000000	40.195961
5.010000	40.195961
5.020000	40.195961
5.030000	40.195961
5.040000	40.195961
5.050000	40.195961
5.060000	40.195961
5.070000	40.195961
5.080000	40.195961
5.090000	40.195961
5.100000	40.195961
5.110000	40.195961
5.120000	40.195961
5.130000	40.195961
5.140000	40.195961
5.150000	40.195961
5.160000	40.195961
5.170000	40.195961
5.180000	40.195961
5.190000	40.195961
5.200000	40.195961
5.210000	40.195961
5.220000	40.195961
5.230000	40.195961
5.240000	40.195961
5.250000	40.195961
5.260000	40.195961
5.270000	40.195961
5.280000	40.195961
5.290000	40.195961
5.300000	40.195961
5.310000	40.195961
5.320000	40.195961
5.330000	40.195961
5.340000	40.195961
5.350000	40.195961
5.360000	40.195961
5.370000	40.195961
5.380000	40.195961
5.390000	40.195961
5.400000	40.195961
5.410000	40.195961
5.420000	40.195961
5.430000	40.195961
5.440000	40.195961
5.450000	40.195961
5.460000	40.195961
5.470000	40.195961
5.480000	40.195961
5.490000	40.195961
5.500000	41.020952
5.510000	41.020952
5.520000	41.020952
5.530000	41.020952
5.540000	41.020952
5.550000	41.020952
5.560000	41.020952
5.570000	41.020952
5.580000	41.020952
5.590000	41.020952
5.600000	41.020952
5.610000	41.020952
5.620000	41.020952
5.630000	41.020952
5.640000	41.020952
5.650000	41.020952
5.660000	41.020952
5.670000	41.020952
5.680000	41.020952
5.690000	41.020952
5.700000	41.020952
5.710000	41.020952
5.720000	41.020952
5.730000	41.020952
5.740000	41.020952
5.750000	41.020952
5.760000	41.020952
5.770000	41.020952
5.780000	41.020952
5.790000	41.020952
5.800000	41.020952
5.810000	41.020952
5.820000	41.020952
5.830000	41.020952
5.840000	41.020952
5.850000	41.020952
5.860000	41.020952
5.870000	41.020952
5.880000	41.020952
5.890000	41.020952
5.900000	41.020952
5.910000	41.020952
5.920000	41.020952
5.930000	41.020952
5.940000	41.020952
5.950000	41.020952
5.960000	41.020952
5.970000	41.020952
5.980000	41.020952
5.990000	41.020952
6.000000	41.573154
6.010000	41.573154
6.020000	41.573154
6.030000	41.573154
6.040000	41.573154
6.050000	41.573154
6.060000	41.573154
6.070000	41.573154
6.080000	41.573154
6.090000	41.573154
6.100000	41.573154
6.110000	41.573154
6.120000	41.573154
6.130000	41.573154
6.140000	41.573154
6.150000	41.573154
6.160000	41.573154
6.170000	41.573154
6.180000	41.573154
6.190000	41.573154
6.200000	41.573154
6.210000	41.573154
6.220000	41.573154
6.230000	41.573154
6.240000	41.573154
6.250000	41.573154
6.260000	41.573154
6.270000	41.573154
6.280000	41.573154
6.290000	41.573154
6.300000	41.573154
6.310000	41.573154
6.320000	41.573154
6.330000	41.573154
6.340000	41.573154
6.350000	41.573154
6.360000	41.573154
6.370000	41.573154
6.380000	41.573154
6.390000	41.573154
6.400000	41.573154
6.410000	41.573154
6.420000	41.573154
6.430000	41.573154
6.440000	41.573154
6.450000	41.573154
6.460000	41.573154
6.470000	41.573154
6.480000	41.573154
6.490000	41.573154
6.500000	41.905418
6.510000	41.905418
6.520000	41.905418
6.530000	41.905418
6.540000	41.905418
6.550000	41.905418
6.560000	41.905418
6.570000	41.905418
6.580000	41.905418
6.590000	41.905418
6.600000	41.905418
6.610000	41.905418
6.620000	41.905418
6.630000	41.905418
6.640000	41.905418
6.650000	41.905418
6.660000	41.905418
6.670000	41.905418
6.680000	41.905418
6.690000	41.905418
6.700000	41.905418
6.710000	41.905418
6.720000	41.905418
6.730000	41.905418
6.740000	41.905418
6.750000	41.905418
6.760000	41.905418
6.770000	41.905418
6.780000	41.905418
6.790000	41.905418
6.800000	41.905418
6.810000	41.905418
6.820000	41.905418
6.830000	41.905418
6.840000	41.905418
6.850000	41.905418
6.860000	41.905418
6.870000	41.905418
6.880000	41.905418
6.890000	41.905418
6.900000	41.905418
6.910000	41.905418
6.920000	41.905418
6.930000	41.905418
6.940000	41.905418
6.950000	41.905418
6.960000	41.905418
6.970000	41.905418
6.980000	41.905418
6.990000	41.905418
7.000000	42.077686
7.010000	42.077686
7.020000	42.077686
7.030000	42.077686
7.040000	42.077686
7.050000	42.077686
7.060000	42.077686
7.070000	42.077686
7.080000	42.077686
7.090000	42.077686
7.100000	42.077686
7.110000	42.077686
7.120000	42.077686
7.130000	42.077686
7.140000	42.077686
7.150000	42.077686
7.160000	42.077686
7.170000	42.077686
7.180000	42.077686
7.190000	42.077686
7.200000	42.077686
7.210000	42.077686
7.220000	42.077686
7.230000	42.077686
7.240000	42.077686
7.250000	42.077686
7.260000	42.077686
7.270000	42.077686
7.280000	42.077686
7.290000	42.077686
7.300000	42.077686
7.310000	42.077686
7.320000	42.077686
7.330000	42.077686
7.340000	42.077686
7.350000	42.077686
7.360000	42.077686
7.370000	42.077686
7.380000	42.077686
7.390000	42.077686
7.400000	42.077686
7.410000	42.077686
7.420000	42.077686
7.430000	42.077686
7.440000	42.077686
7.450000	42.077686
7.460000	42.077686
7.470000	42.077686
7.480000	42.077686
7.490000	42.077686
7.500000	42.124750
7.510000	42.124750
7.520000	42.124750
7.530000	42.124750
7.540000	42.124750
7.550000	42.124750
7.560000	42.124750
7.570000	42.124750
7.580000	42.124750
7.590000	42.124750
7.600000	42.124750
7.610000	42.124750
7.620000	42.124750
7.630000	42.124750
7.640000	42.124750
7.650000	42.124750
7.660000	42.124750
7.670000	42.124750
7.680000	42.124750
7.690000	42.124750
7.700000	42.124750
7.710000	42.124750
7.720000	42.124750
7.730000	42.124750
7.740000	42.124750
7.750000	42.124750
7.760000	42.124750
7.770000	42.124750
7.780000	42.124750
7.790000	42.124750
7.800000	42.124750
7.810000	42.124750
7.820000	42.124750
7.830000	42.124750
7.840000	42.124750
7.850000	42.124750
7.860000	42.124750
7.870000	42.124750
7.880000	42.124750
7.890000	42.124750
7.900000	42.124750
7.910000	42.124750
7.920000	42.124750
7.930000	42.124750
7.940000	42.124750
7.950000	42.124750
7.960000	42.124750
7.970000	42.124750
7.980000	42.124750
7.990000	42.124750
8.000000	42.075786
8.010000	42.075786
8.020000	42.075786
8.030000	42.075786
8.040000	42.075786
8.050000	42.075786
8.060000	42.075786
8.070000	42.075786
8.080000	42.075786
8.090000	42.075786
8.100000	42.075786
8.110000	42.075786
8.120000	42.075786
8.130000	42.075786
8.140000	42.075786
8.150000	42.075786
8.160000	42.075786
8.170000	42.075786
8.180000	42.075786
8.190000	42.075786
8.200000	42.075786
8.210000	42.075786
8.220000	42.075786
8.230000	42.075786
8.240000	42.075786
8.250000	42.075786
8.260000	42.075786
8.270000	42.075786
8.280000	42.075786
8.290000	42.075786
8.300000	42.075786
8.310000	42.075786
8.320000	42.075786
8.330000	42.075786
8.340000	42.075786
8.350000	42.075786
8.360000	42.075786
8.370000	42.075786
8.380000	42.075786
8.390000	42.075786
8.400000	42.075786
8.410000	42.075786
8.420000	42.075786
8.430000	42.075786
8.440000	42.075786
8.450000	42.075786
8.460000	42.075786
8.470000	42.075786
8.480000	42.075786
8.490000	42.075786
8.500000	41.952254
8.510000	41.952254
8.520000	41.952254
8.530000	41.952254
8.540000	41.952254
8.550000	41.952254
8.560000	41.952254
8.570000	41.952254
8.580000	41.952254
8.590000	41.952254
8.600000	41.952254
8.610000	41.952254
8.620000	41.952254
8.630000	41.952254
8.640000	41.952254
8.650000	41.952254
8.660000	41.952254
8.670000	41.952254
8.680000	41.952254
8.690000	41.952254
8.700000	41.952254
8.710000	41.952254
8.720000	41.952254
8.730000	41.952254
8.740000	41.952254
8.750000	41.952254
8.760000	41.952254
8.770000	41.952254
8.780000	41.952254
8.790000	41.952254
8.800000	41.952254
8.810000	41.952254
8.820000	41.952254
8.830000	41.952254
8.840000	41.952254
8.850000	41.952254
8.860000	41.952254
8.870000	41.952254
8.880000	41.952254
8.890000	41.952254
8.900000	41.952254
8.910000	41.952254
8.920000	41.952254
8.930000	41.952254
8.940000	41.952254
8.950000	41.952254
8.960000	41.952254
8.970000	41.952254
8.980000	41.952254
8.990000	41.952254
9.000000	41.776800
9.010000	41.776800
9.020000	41.776800
9.030000	41.776800
9.040000	41.776800
9.050000	41.776800
9.060000	41.776800
9.070000	41.776800
9.080000	41.776800
9.090000	41.776800
9.100000	41.776800
9.110000	41.776800
9.120000	41.776800
9.130000	41.776800
9.140000	41.776800
9.150000	41.776800
9.160000	41.776800
9.170000	41.776800
9.180000	41.776800
9.190000	41.776800
9.200000	41.776800
9.210000	41.776800
9.220000	41.776800
9.230000	41.776800
9.240000	41.776800
9.250000	41.776800
9.260000	41.776800
9.270000	41.776800
9.280000	41.776800
9.290000	41.776800
9.300000	41.776800
9.310000	41.776800
9.320000	41.776800
9.330000	41.776800
9.340000	41.776800
9.350000	41.776800
9.360000	41.776800
9.370000	41.776800
9.380000	41.776800
9.390000	41.776800
9.400000	41.776800
9.410000	41.776800
9.420000	41.776800
9.430000	41.776800
9.440000	41.776800
9.450000	41.776800
9.460000	41.776800
9.470000	41.776800
9.480000	41.776800
9.490000	41.776800
9.500000	41.523949
9.510000	41.523949
9.520000	41.523949
9.530000	41.523949
9.540000	41.523949
9.550000	41.523949
9.560000	41.523949
9.570000	41.523949
9.580000	41.523949
9.590000	41.523949
9.600000	41.523949
9.610000	41.523949
9.620000	41.523949
9.630000	41.523949
9.640000	41.523949
9.650000	41.523949
9.660000	41.523949
9.670000	41.523949
9.680000	41.523949
9.690000	41.523949
9.700000	41.523949
9.710000	41.523949
9.720000	41.523949
9.730000	41.523949
9.740000	41.523949
9.750000	41.523949
9.760000	41.523949
9.770000	41.523949
9.780000	41.523949
9.790000	41.523949
9.800000	41.523949
9.810000	41.523949
9.820000	41.523949
9.830000	41.523949
9.840000	41.523949
9.850000	41.523949
9.860000	41.523949
9.870000	41.523949
9.880000	41.523949
9.890000	41.523949
9.900000	41.523949
9.910000	41.523949
9.920000	41.523949
9.930000	41.523949
9.940000	41.523949
9.950000	41.523949
9.960000	41.523949
9.970000	41.523949
9.980000	41.523949
9.990000	41.523949
10.000000	41.258100
10.010000	41.258100
10.020000	41.258100
10.030000	41.258100
10.040000	41.258100
10.050000	41.258100
10.060000	41.258100
10.070000	41.258100
10.080000	41.258100
10.090000	41.258100
10.100000	41.258100
10.110000	41.258100
10.120000	41.258100
10.130000	41.258100
10.140000	41.258100
10.150000	41.258100
10.160000	41.258100
10.170000	41.258100
10.180000	41.258100
10.190000	41.258100
10.200000	41.258100
10.210000	41.258100
10.220000	41.258100
10.230000	41.258100
10.240000	41.258100
10.250000	41.258100
10.260000	41.258100
10.270000	41.258100
10.280000	41.258100
10.290000	41.258100
10.300000	41.258100
10.310000	41.258100
10.320000	41.258100
10.330000	41.258100
10.340000	41.258100
10.350000	41.258100
10.360000	41.258100
10.370000	41.258100
10.380000	41.258100
10.390000	41.258100
10.400000	41.258100
10.410000	41.258100
10.420000	41.258100
10.430000	41.258100
10.440000	41.258100
10.450000	41.258100
10.460000	41.258100
10.470000	41.258100
10.480000	41.258100
10.490000	41.258100
10.500000	40.936130
10.510000	40.936130
10.520000	40.936130
10.530000	40.936130
10.540000	40.936130
10.550000	40.936130
10.560000	40.936130
10.570000	40.936130
10.580000	40.936130
10.590000	40.936130
10.600000	40.936130
10.610000	40.936130
10.620000	40.936130
10.630000	40.936130
10.640000	40.936130
10.650000	40.936130
10.660000	40.936130
10.670000	40.936130
10.680000	40.936130
10.690000	40.936130
10.700000	40.936130
10.710000	40.936130
10.720000	40.936130
10.730000	40.936130
10.740000	40.936130
10.750000	40.936130
10.760000	40.936130
10.770000	40.936130
10.780000	40.936130
10.790000	40.936130
10.800000	40.936130
10.810000	40.936130
10.820000	40.936130
10.830000	40.936130
10.840000	40.936130
10.850000	40.936130
10.860000	40.936130
10.870000	40.936130
10.880000	40.936130
10.890000	40.936130
10.900000	40.936130
10.910000	40.936130
10.920000	40.936130
10.930000	40.936130
10.940000	40.936130
10.950000	40.936130
10.960000	40.936130
10.970000	40.936130
10.980000	40.936130
10.990000	40.936130
11.000000	40.586008
11.010000	40.586008
11.020000	40.586008
11.030000	40.586008
11.040000	40.586008
11.050000	40.586008
11.060000	40.586008
11.070000	40.586008
11.080000	40.586008
11.090000	40.586008
11.100000	40.586008
11.110000	40.586008
11.120000	40.586008
11.130000	40.586008
11.140000	40.586008
11.150000	40.586008
11.160000	40.586008
11.170000	40.586008
11.180000	40.586008
11.190000	40.586008
11.200000	40.586008
11.210000	40.586008
11.220000	40.586008
11.230000	40.586008
11.240000	40.586008
11.250000	40.586008
11.260000	40.586008
11.270000	40.586008
11.280000	40.586008
11.290000	40.586008
11.300000	40.586008
11.310000	40.586008
11.320000	40.586008
11.330000	40.586008
11.340000	40.586008
11.350000	40.586008
11.360000	40.586008
11.370000	40.586008
11.380000	40.586008
11.390000	40.586008
11.400000	40.586008
11.410000	40.586008
11.420000	40.586008
11.430000	40.586008
11.440000	40.586008
11.450000	40.586008
11.460000	40.586008
11.470000	40.586008
11.480000	40.586008
11.490000	40.586008
11.500000	40.267300
11.510000	40.267300
11.520000	40.267300
11.530000	40.267300
11.540000	40.267300
11.550000	40.267300
11.560000	40.267300
11.570000	40.267300
11.580000	40.267300
11.590000	40.267300
11.600000	40.267300
11.610000	40.267300
11.620000	40.267300
11.630000	40.267300
11.640000	40.267300
11.650000	40.267300
11.660000	40.267300
11.670000	40.267300
11.680000	40.267300
11.690000	40.267300
11.700000	40.267300
11.710000	40.267300
11.720000	40.267300
11.730000	40.267300
11.740000	40.267300
11.750000	40.267300
11.760000	40.267300
11.770000	40.267300
11.780000	40.267300
11.790000	40.267300
11.800000	40.267300
11.810000	40.267300
11.820000	40.267300
11.830000	40.267300
11.840000	40.267300
11.850000	40.267300
11.860000	40.267300
11.870000	40.267300
11.880000	40.267300
11.890000	40.267300
11.900000	40.267300
11.910000	40.267300
11.920000	40.267300
11.930000	40.267300
11.940000	40.267300
11.950000	40.267300
11.960000	40.267300
11.970000	40.267300
11.980000	40.267300
11.990000	40.267300
12.000000	39.954089
12.010000	39.954089
12.020000	39.954089
12.030000	39.954089
12.040000	39.954089
12.050000	39.954089
12.060000	39.954089
12.070000	39.954089
12.080000	39.954089
12.090000	39.954089
12.100000	39.954089
12.110000	39.954089
12.120000	39.954089
12.130000	39.954089
12.140000	39.954089
12.150000	39.954089
12.160000	39.954089
12.170000	39.954089
12.180000	39.954089
12.190000	39.954089
12.200000	39.954089
12.210000	39.954089
12.220000	39.954089
12.230000	39.954089
12.240000	39.954089
12.250000	39.954089
12.260000	39.954089
12.270000	39.954089
12.280000	39.954089
12.290000	39.954089
12.300000	39.954089
12.310000	39.954089
12.320000	39.954089
12.330000	39.954089
12.340000	39.954089
12.350000	39.954089
12.360000	39.954089
12.370000	39.954089
12.380000	39.954089
12.390000	39.954089
12.400000	39.954089
12.410000	39.954089
12.420000	39.954089
12.430000	39.954089
12.440000	39.954089
12.450000	39.954089
12.460000	39.954089
12.470000	39.954089
12.480000	39.954089
12.490000	39.954089
12.500000	39.625602
12.510000	39.625602
12.520000	39.625602
12.530000	39.625602
12.540000	39.625602
12.550000	39.625602
12.560000	39.625602
12.570000	39.625602
12.580000	39.625602
12.590000	39.625602
12.600000	39.625602
12.610000	39.625602
12.620000	39.625602
12.630000	39.625602
12.640000	39.625602
12.650000	39.625602
12.660000	39.625602
12.670000	39.625602
12.680000	39.625602
12.690000	39.625602
12.700000	39.625602
12.710000	39.625602
12.720000	39.625602
12.730000	39.625602
12.740000	39.625602
12.750000	39.625602
12.760000	39.625602
12.770000	39.625602
12.780000	39.625602
12.790000	39.625602
12.800000	39.625602
12.810000	39.625602
12.820000	39.625602
12.830000	39.625602
12.840000	39.625602
12.850000	39.625602
12.860000	39.625602
12.870000	39.625602
12.880000	39.625602
12.890000	39.625602
12.900000	39.625602
12.910000	39.625602
12.920000	39.625602
12.930000	39.625602
12.940000	39.625602
12.950000	39.625602
12.960000	39.625602
12.970000	39.625602
12.980000	39.625602
12.990000	39.625602
13.000000	39.299223
13.010000	39.299223
13.020000	39.299223
13.030000	39.299223
13.040000	39.299223
13.050000	39.299223
13.060000	39.299223
13.070000	39.299223
13.080000	39.299223
13.090000	39.299223
13.100000	39.299223
13.110000	39.299223
13.120000	39.299223
13.130000	39.299223
13.140000	39.299223
13.150000	39.299223
13.160000	39.299223
13.170000	39.299223
13.180000	39.299223
13.190000	39.299223
13.200000	39.299223
13.210000	39.299223
13.220000	39.299223
13.230000	39.299223
13.240000	39.299223
13.250000	39.299223
13.260000	39.299223
13.270000	39.299223
13.280000	39.299223
13.290000	39.299223
13.300000	39.299223
13.310000	39.299223
13.320000	39.299223
13.330000	39.299223
13.340000	39.299223
13.350000	39.299223
13.360000	39.299223
13.370000	39.299223
13.380000	39.299223
13.390000	39.299223
13.400000	39.299223
13.410000	39.299223
13.420000	39.299223
13.430000	39.299223
13.440000	39.299223
13.450000	39.299223
13.460000	39.299223
13.470000	39.299223
13.480000	39.299223
13.490000	39.299223
13.500000	39.004905
13.510000	39.004905
13.520000	39.004905
13.530000	39.004905
13.540000	39.004905
13.550000	39.004905
13.560000	39.004905
13.570000	39.004905
13.580000	39.004905
13.590000	39.004905
13.600000	39.004905
13.610000	39.004905
13.620000	39.004905
13.630000	39.004905
13.640000	39.004905
13.650000	39.004905
13.660000	39.004905
13.670000	39.004905
13.680000	39.004905
13.690000	39.004905
13.700000	39.004905
13.710000	39.004905
13.720000	39.004905
13.730000	39.004905
13.740000	39.004905
13.750000	39.004905
13.760000	39.004905
13.770000	39.004905
13.780000	39.004905
13.790000	39.004905
13.800000	39.004905
13.810000	39.004905
13.820000	39.004905
13.830000	39.004905
13.840000	39.004905
13.850000	39.004905
13.860000	39.004905
13.870000	39.004905
13.880000	39.004905
13.890000	39.004905
13.900000	39.004905
13.910000	39.004905
13.920000	39.004905
13.930000	39.004905
13.940000	39.004905
13.950000	39.004905
13.960000	39.004905
13.970000	39.004905
13.980000	39.004905
13.990000	39.004905
14.000000	38.739876
14.010000	38.739876
14.020000	38.739876
14.030000	38.739876
14.040000	38.739876
14.050000	38.739876
14.060000	38.739876
14.070000	38.739876
14.080000	38.739876
14.090000	38.739876
14.100000	38.739876
14.110000	38.739876
14.120000	38.739876
14.130000	38.739876
14.140000	38.739876
14.150000	38.739876
14.160000	38.739876
14.170000	38.739876
14.180000	38.739876
14.190000	38.739876
14.200000	38.739876
14.210000	38.739876
14.220000	38.739876
14.230000	38.739876
14.240000	38.739876
14.250000	38.739876
14.260000	38.739876
14.270000	38.739876
14.280000	38.739876
14.290000	38.739876
14.300000	38.739876
14.310000	38.739876
14.320000	38.739876
14.330000	38.739876
14.340000	38.739876
14.350000	38.739876
14.360000	38.739876
14.370000	38.739876
14.380000	38.739876
14.390000	38.739876
14.400000	38.739876
14.410000	38.739876
14.420000	38.739876
14.430000	38.739876
14.440000	38.739876
14.450000	38.739876
14.460000	38.739876
14.470000	38.739876
14.480000	38.739876
14.490000	38.739876
14.500000	38.479986
14.510000	38.479986
14.520000	38.479986
14.530000	38.479986
14.540000	38.479986
14.550000	38.479986
14.560000	38.479986
14.570000	38.479986
14.580000	38.479986
14.590000	38.479986
14.600000	38.479986
14.610000	38.479986
14.620000	38.479986
14.630000	38.479986
14.640000	38.479986
14.650000	38.479986
14.660000	38.479986
14.670000	38.479986
14.680000	38.479986
14.690000	38.479986
14.700000	38.479986
14.710000	38.479986
14.720000	38.479986
14.730000	38.479986
14.740000	38.479986
14.750000	38.479986
14.760000	38.479986
14.770000	38.479986
14.780000	38.479986
14.790000	38.479986
14.800000	38.479986
14.810000	38.479986
14.820000	38.479986
14.830000	38.479986
14.840000	38.479986
14.850000	38.479986
14.860000	38.479986
14.870000	38.479986
14.880000	38.479986
14.890000	38.479986
14.900000	38.479986
14.910000	38.479986
14.920000	38.479986
14.930000	38.479986
14.940000	38.479986
14.950000	38.479986
14.960000	38.479986
14.970000	38.479986
14.980000	38.479986
14.990000	38.479986
15.000000	38.223381
15.010000	38.223381
15.020000	38.223381
15.030000	38.223381
15.040000	38.223381
15.050000	38.223381
15.060000	38.223381
15.070000	38.223381
15.080000	38.223381
15.090000	38.223381
15.100000	38.223381
15.110000	38.223381
15.120000	38.223381
15.130000	38.223381
15.140000	38.223381
15.150000	38.223381
15.160000	38.223381
15.170000	38.223381
15.180000	38.223381
15.190000	38.223381
15.200000	38.223381
15.210000	38.223381
15.220000	38.223381
15.230000	38.223381
15.240000	38.223381
15.250000	38.223381
15.260000	38.223381
15.270000	38.223381
15.280000	38.223381
15.290000	38.223381
15.300000	38.223381
15.310000	38.223381
15.320000	38.223381
15.330000	38.223381
15.340000	38.223381
15.350000	38.223381
15.360000	38.223381
15.370000	38.223381
15.380000	38.223381
15.390000	38.223381
15.400000	38.223381
15.410000	38.223381
15.420000	38.223381
15.430000	38.223381
15.440000	38.223381
15.450000	38.223381
15.460000	38.223381
15.470000	38.223381
15.480000	38.223381
15.490000	38.223381
15.500000	37.971895
15.510000	37.971895
15.520000	37.971895
15.530000	37.971895
15.540000	37.971895
15.550000	37.971895
15.560000	37.971895
15.570000	37.971895
15.580000	37.971895
15.590000	37.971895
15.600000	37.971895
15.610000	37.971895
15.620000	37.971895
15.630000	37.971895
15.640000	37.971895
15.650000	37.971895
15.660000	37.971895
15.670000	37.971895
15.680000	37.971895
15.690000	37.971895
15.700000	37.971895
15.710000	37.971895
15.720000	37.971895
15.730000	37.971895
15.740000	37.971895
15.750000	37.971895
15.760000	37.971895
15.770000	37.971895
15.780000	37.971895
15.790000	37.971895
15.800000	37.971895
15.810000	37.971895
15.820000	37.971895
15.830000	37.971895
15.840000	37.971895
15.850000	37.971895
15.860000	37.971895
15.870000	37.971895
15.880000	37.971895
15.890000	37.971895
15.900000	37.971895
15.910000	37.971895
15.920000	37.971895
15.930000	37.971895
15.940000	37.971895
15.950000	37.971895
15.960000	37.971895
15.970000	37.971895
15.980000	37.971895
15.990000	37.971895
16.000000	37.720433
16.010000	37.720433
16.020000	37.720433
16.030000	37.720433
16.040000	37.720433
16.050000	37.720433
16.060000	37.720433
16.070000	37.720433
16.080000	37.720433
16.090000	37.720433
16.100000	37.720433
16.110000	37.720433
16.120000	37.720433
16.130000	37.720433
16.140000	37.720433
16.150000	37.720433
16.160000	37.720433
16.170000	37.720433
16.180000	37.720433
16.190000	37.720433
16.200000	37.720433
16.210000	37.720433
16.220000	37.720433
16.230000	37.720433
16.240000	37.720433
16.250000	37.720433
16.260000	37.720433
16.270000	37.720433
16.280000	37.720433
16.290000	37.720433
16.300000	37.720433
16.310000	37.720433
16.320000	37.720433
16.330000	37.720433
16.340000	37.720433
16.350000	37.720433
16.360000	37.720433
16.370000	37.720433
16.380000	37.720433
16.390000	37.720433
16.400000	37.720433
16.410000	37.720433
16.420000	37.720433
16.430000	37.720433
16.440000	37.720433
16.450000	37.720433
16.460000	37.720433
16.470000	37.720433
16.480000	37.720433
16.490000	37.720433
16.500000	37.475171
16.510000	37.475171
16.520000	37.475171
16.530000	37.475171
16.540000	37.475171
16.550000	37.475171
16.560000	37.475171
16.570000	37.475171
16.580000	37.475171
16.590000	37.475171
16.600000	37.475171
16.610000	37.475171
16.620000	37.475171
16.630000	37.475171
16.640000	37.475171
16.650000	37.475171
16.660000	37.475171
16.670000	37.475171
16.680000	37.475171
16.690000	37.475171
16.700000	37.475171
16.710000	37.475171
16.720000	37.475171
16.730000	37.475171
16.740000	37.475171
16.750000	37.475171
16.760000	37.475171
16.770000	37.475171
16.780000	37.475171
16.790000	37.475171
16.800000	37.475171
16.810000	37.475171
16.820000	37.475171
16.830000	37.475171
16.840000	37.475171
16.850000	37.475171
16.860000	37.475171
16.870000	37.475171
16.880000	37.475171
16.890000	37.475171
16.900000	37.475171
16.910000	37.475171
16.920000	37.475171
16.930000	37.475171
16.940000	37.475171
16.950000	37.475171
16.960000	37.475171
16.970000	37.475171
16.980000	37.475171
16.990000	37.475171
17.000000	37.234530
17.010000	37.234530
17.020000	37.234530
17.030000	37.234530
17.040000	37.234530
17.050000	37.234530
17.060000	37.234530
17.070000	37.234530
17.080000	37.234530
17.090000	37.234530
17.100000	37.234530
17.110000	37.234530
17.120000	37.234530
17.130000	37.234530
17.140000	37.234530
17.150000	37.234530
17.160000	37.234530
17.170000	37.234530
17.180000	37.234530
17.190000	37.234530
17.200000	37.234530
17.210000	37.234530
17.220000	37.234530
17.230000	37.234530
17.240000	37.234530
17.250000	37.234530
17.260000	37.234530
17.270000	37.234530
17.280000	37.234530
17.290000	37.234530
17.300000	37.234530
17.310000	37.234530
17.320000	37.234530
17.330000	37.234530
17.340000	37.234530
17.350000	37.234530
17.360000	37.234530
17.370000	37.234530
17.380000	37.234530
17.390000	37.234530
17.400000	37.234530
17.410000	37.234530
17.420000	37.234530
17.430000	37.234530
17.440000	37.234530
17.450000	37.234530
17.460000	37.234530
17.470000	37.234530
17.480000	37.234530
17.490000	37.234530
17.500000	36.997139
17.510000	36.997139
17.520000	36.997139
17.530000	36.997139
17.540000	36.997139
17.550000	36.997139
17.560000	36.997139
17.570000	36.997139
17.580000	36.997139
17.590000	36.997139
17.600000	36.997139
17.610000	36.997139
17.620000	36.997139
17.630000	36.997139
17.640000	36.997139
17.650000	36.997139
17.660000	36.997139
17.670000	36.997139
17.680000	36.997139
17.690000	36.997139
17.700000	36.997139
17.710000	36.997139
17.720000	36.997139
17.730000	36.997139
17.740000	36.997139
17.750000	36.997139
17.760000	36.997139
17.770000	36.997139
17.780000	36.997139
17.790000	36.997139
17.800000	36.997139
17.810000	36.997139
17.820000	36.997139
17.830000	36.997139
17.840000	36.997139
17.850000	36.997139
17.860000	36.997139
17.870000	36.997139
17.880000	36.997139
17.890000	36.997139
17.900000	36.997139
17.910000	36.997139
17.920000	36.997139
17.930000	36.997139
17.940000	36.997139
17.950000	36.997139
17.960000	36.997139
17.970000	36.997139
17.980000	36.997139
17.990000	36.997139
