LabVIEW Measurement	
Writer_Version	2
Reader_Version	2
Separator	Tab
Decimal_Separator	.
Multi_Headings	No
X_Columns	One
Time_Pref	Absolute
Operator	biomech-dyno
Date	2023/05/23
Time	16:26:31.1792034999998606061
***End_of_Header***	
	
Channels	1	
Samples	10	
Date	2023/05/23	
Time	18:48:45.829659099999523804	
X_Dimension	Time	
X0	0.0000000000000000E+0	
Delta_X	0.010000	
***End_of_Header***		
X_Value	Untitled	Comment
0.000000	24.947928
0.010000	24.947928
0.020000	24.947928
0.030000	24.947928
0.040000	24.947928
0.050000	24.947928
0.060000	24.947928
0.070000	24.947928
0.080000	24.947928
0.090000	24.947928
0.100000	24.947928
0.110000	24.947928
0.120000	24.947928
0.130000	24.947928
0.140000	24.947928
0.150000	24.947928
0.160000	24.947928
0.170000	24.947928
0.180000	24.947928
0.190000	24.947928
0.200000	24.947928
0.210000	24.947928
0.220000	24.947928
0.230000	24.947928
0.240000	24.947928
0.250000	24.947928
0.260000	24.947928
0.270000	24.947928
0.280000	24.947928
0.290000	24.947928
0.300000	24.947928
0.310000	24.947928
0.320000	24.947928
0.330000	24.947928
0.340000	24.947928
0.350000	24.947928
0.360000	24.947928
0.370000	24.947928
0.380000	24.947928
0.390000	24.947928
0.400000	24.947928
0.410000	24.947928
0.420000	24.947928
0.430000	24.947928
0.440000	24.947928
0.450000	24.947928
0.460000	24.947928
0.470000	24.947928
0.480000	24.947928
0.490000	24.947928
0.500000	24.954931
0.510000	24.954931
0.520000	24.954931
0.530000	24.954931
0.540000	24.954931
0.550000	24.954931
0.560000	24.954931
0.570000	24.954931
0.580000	24.954931
0.590000	24.954931
0.600000	24.954931
0.610000	24.954931
0.620000	24.954931
0.630000	24.954931
0.640000	24.954931
0.650000	24.954931
0.660000	24.954931
0.670000	24.954931
0.680000	24.954931
0.690000	24.954931
0.700000	24.954931
0.710000	24.954931
0.720000	24.954931
0.730000	24.954931
0.740000	24.954931
0.750000	24.954931
0.760000	24.954931
0.770000	24.954931
0.780000	24.954931
0.790000	24.954931
0.800000	24.954931
0.810000	24.954931
0.820000	24.954931
0.830000	24.954931
0.840000	24.954931
0.850000	24.954931
0.860000	24.954931
0.870000	24.954931
0.880000	24.954931
0.890000	24.954931
0.900000	24.954931
0.910000	24.954931
0.920000	24.954931
0.930000	24.954931
0.940000	24.954931
0.950000	24.954931
0.960000	24.954931
0.970000	24.954931
0.980000	24.954931
0.990000	24.954931
1.000000	24.961001
1.010000	24.961001
1.020000	24.961001
1.030000	24.961001
1.040000	24.961001
1.050000	24.961001
1.060000	24.961001
1.070000	24.961001
1.080000	24.961001
1.090000	24.961001
1.100000	24.961001
1.110000	24.961001
1.120000	24.961001
1.130000	24.961001
1.140000	24.961001
1.150000	24.961001
1.160000	24.961001
1.170000	24.961001
1.180000	24.961001
1.190000	24.961001
1.200000	24.961001
1.210000	24.961001
1.220000	24.961001
1.230000	24.961001
1.240000	24.961001
1.250000	24.961001
1.260000	24.961001
1.270000	24.961001
1.280000	24.961001
1.290000	24.961001
1.300000	24.961001
1.310000	24.961001
1.320000	24.961001
1.330000	24.961001
1.340000	24.961001
1.350000	24.961001
1.360000	24.961001
1.370000	24.961001
1.380000	24.961001
1.390000	24.961001
1.400000	24.961001
1.410000	24.961001
1.420000	24.961001
1.430000	24.961001
1.440000	24.961001
1.450000	24.961001
1.460000	24.961001
1.470000	24.961001
1.480000	24.961001
1.490000	24.961001
1.500000	24.968995
1.510000	24.968995
1.520000	24.968995
1.530000	24.968995
1.540000	24.968995
1.550000	24.968995
1.560000	24.968995
1.570000	24.968995
1.580000	24.968995
1.590000	24.968995
1.600000	24.968995
1.610000	24.968995
1.620000	24.968995
1.630000	24.968995
1.640000	24.968995
1.650000	24.968995
1.660000	24.968995
1.670000	24.968995
1.680000	24.968995
1.690000	24.968995
1.700000	24.968995
1.710000	24.968995
1.720000	24.968995
1.730000	24.968995
1.740000	24.968995
1.750000	24.968995
1.760000	24.968995
1.770000	24.968995
1.780000	24.968995
1.790000	24.968995
1.800000	24.968995
1.810000	24.968995
1.820000	24.968995
1.830000	24.968995
1.840000	24.968995
1.850000	24.968995
1.860000	24.968995
1.870000	24.968995
1.880000	24.968995
1.890000	24.968995
1.900000	24.968995
1.910000	24.968995
1.920000	24.968995
1.930000	24.968995
1.940000	24.968995
1.950000	24.968995
1.960000	24.968995
1.970000	24.968995
1.980000	24.968995
1.990000	24.968995
2.000000	24.979041
2.010000	24.979041
2.020000	24.979041
2.030000	24.979041
2.040000	24.979041
2.050000	24.979041
2.060000	24.979041
2.070000	24.979041
2.080000	24.979041
2.090000	24.979041
2.100000	24.979041
2.110000	24.979041
2.120000	24.979041
2.130000	24.979041
2.140000	24.979041
2.150000	24.979041
2.160000	24.979041
2.170000	24.979041
2.180000	24.979041
2.190000	24.979041
2.200000	24.979041
2.210000	24.979041
2.220000	24.979041
2.230000	24.979041
2.240000	24.979041
2.250000	24.979041
2.260000	24.979041
2.270000	24.979041
2.280000	24.979041
2.290000	24.979041
2.300000	24.979041
2.310000	24.979041
2.320000	24.979041
2.330000	24.979041
2.340000	24.979041
2.350000	24.979041
2.360000	24.979041
2.370000	24.979041
2.380000	24.979041
2.390000	24.979041
2.400000	24.979041
2.410000	24.979041
2.420000	24.979041
2.430000	24.979041
2.440000	24.979041
2.450000	24.979041
2.460000	24.979041
2.470000	24.979041
2.480000	24.979041
2.490000	24.979041
2.500000	24.990734
2.510000	24.990734
2.520000	24.990734
2.530000	24.990734
2.540000	24.990734
2.550000	24.990734
2.560000	24.990734
2.570000	24.990734
2.580000	24.990734
2.590000	24.990734
2.600000	24.990734
2.610000	24.990734
2.620000	24.990734
2.630000	24.990734
2.640000	24.990734
2.650000	24.990734
2.660000	24.990734
2.670000	24.990734
2.680000	24.990734
2.690000	24.990734
2.700000	24.990734
2.710000	24.990734
2.720000	24.990734
2.730000	24.990734
2.740000	24.990734
2.750000	24.990734
2.760000	24.990734
2.770000	24.990734
2.780000	24.990734
2.790000	24.990734
2.800000	24.990734
2.810000	24.990734
2.820000	24.990734
2.830000	24.990734
2.840000	24.990734
2.850000	24.990734
2.860000	24.990734
2.870000	24.990734
2.880000	24.990734
2.890000	24.990734
2.900000	24.990734
2.910000	24.990734
2.920000	24.990734
2.930000	24.990734
2.940000	24.990734
2.950000	24.990734
2.960000	24.990734
2.970000	24.990734
2.980000	24.990734
2.990000	24.990734
3.000000	25.004847
3.010000	25.004847
3.020000	25.004847
3.030000	25.004847
3.040000	25.004847
3.050000	25.004847
3.060000	25.004847
3.070000	25.004847
3.080000	25.004847
3.090000	25.004847
3.100000	25.004847
3.110000	25.004847
3.120000	25.004847
3.130000	25.004847
3.140000	25.004847
3.150000	25.004847
3.160000	25.004847
3.170000	25.004847
3.180000	25.004847
3.190000	25.004847
3.200000	25.004847
3.210000	25.004847
3.220000	25.004847
3.230000	25.004847
3.240000	25.004847
3.250000	25.004847
3.260000	25.004847
3.270000	25.004847
3.280000	25.004847
3.290000	25.004847
3.300000	25.004847
3.310000	25.004847
3.320000	25.004847
3.330000	25.004847
3.340000	25.004847
3.350000	25.004847
3.360000	25.004847
3.370000	25.004847
3.380000	25.004847
3.390000	25.004847
3.400000	25.004847
3.410000	25.004847
3.420000	25.004847
3.430000	25.004847
3.440000	25.004847
3.450000	25.004847
3.460000	25.004847
3.470000	25.004847
3.480000	25.004847
3.490000	25.004847
3.500000	25.018301
3.510000	25.018301
3.520000	25.018301
3.530000	25.018301
3.540000	25.018301
3.550000	25.018301
3.560000	25.018301
3.570000	25.018301
3.580000	25.018301
3.590000	25.018301
3.600000	25.018301
3.610000	25.018301
3.620000	25.018301
3.630000	25.018301
3.640000	25.018301
3.650000	25.018301
3.660000	25.018301
3.670000	25.018301
3.680000	25.018301
3.690000	25.018301
3.700000	25.018301
3.710000	25.018301
3.720000	25.018301
3.730000	25.018301
3.740000	25.018301
3.750000	25.018301
3.760000	25.018301
3.770000	25.018301
3.780000	25.018301
3.790000	25.018301
3.800000	25.018301
3.810000	25.018301
3.820000	25.018301
3.830000	25.018301
3.840000	25.018301
3.850000	25.018301
3.860000	25.018301
3.870000	25.018301
3.880000	25.018301
3.890000	25.018301
3.900000	25.018301
3.910000	25.018301
3.920000	25.018301
3.930000	25.018301
3.940000	25.018301
3.950000	25.018301
3.960000	25.018301
3.970000	25.018301
3.980000	25.018301
3.990000	25.018301
4.000000	25.031225
4.010000	25.031225
4.020000	25.031225
4.030000	25.031225
4.040000	25.031225
4.050000	25.031225
4.060000	25.031225
4.070000	25.031225
4.080000	25.031225
4.090000	25.031225
4.100000	25.031225
4.110000	25.031225
4.120000	25.031225
4.130000	25.031225
4.140000	25.031225
4.150000	25.031225
4.160000	25.031225
4.170000	25.031225
4.180000	25.031225
4.190000	25.031225
4.200000	25.031225
4.210000	25.031225
4.220000	25.031225
4.230000	25.031225
4.240000	25.031225
4.250000	25.031225
4.260000	25.031225
4.270000	25.031225
4.280000	25.031225
4.290000	25.031225
4.300000	25.031225
4.310000	25.031225
4.320000	25.031225
4.330000	25.031225
4.340000	25.031225
4.350000	25.031225
4.360000	25.031225
4.370000	25.031225
4.380000	25.031225
4.390000	25.031225
4.400000	25.031225
4.410000	25.031225
4.420000	25.031225
4.430000	25.031225
4.440000	25.031225
4.450000	25.031225
4.460000	25.031225
4.470000	25.031225
4.480000	25.031225
4.490000	25.031225
4.500000	25.043241
4.510000	25.043241
4.520000	25.043241
4.530000	25.043241
4.540000	25.043241
4.550000	25.043241
4.560000	25.043241
4.570000	25.043241
4.580000	25.043241
4.590000	25.043241
4.600000	25.043241
4.610000	25.043241
4.620000	25.043241
4.630000	25.043241
4.640000	25.043241
4.650000	25.043241
4.660000	25.043241
4.670000	25.043241
4.680000	25.043241
4.690000	25.043241
4.700000	25.043241
4.710000	25.043241
4.720000	25.043241
4.730000	25.043241
4.740000	25.043241
4.750000	25.043241
4.760000	25.043241
4.770000	25.043241
4.780000	25.043241
4.790000	25.043241
4.800000	25.043241
4.810000	25.043241
4.820000	25.043241
4.830000	25.043241
4.840000	25.043241
4.850000	25.043241
4.860000	25.043241
4.870000	25.043241
4.880000	25.043241
4.890000	25.043241
4.900000	25.043241
4.910000	25.043241
4.920000	25.043241
4.930000	25.043241
4.940000	25.043241
4.950000	25.043241
4.960000	25.043241
4.970000	25.043241
4.980000	25.043241
4.990000	25.043241
5.000000	25.053763
5.010000	25.053763
5.020000	25.053763
5.030000	25.053763
5.040000	25.053763
5.050000	25.053763
5.060000	25.053763
5.070000	25.053763
5.080000	25.053763
5.090000	25.053763
5.100000	25.053763
5.110000	25.053763
5.120000	25.053763
5.130000	25.053763
5.140000	25.053763
5.150000	25.053763
5.160000	25.053763
5.170000	25.053763
5.180000	25.053763
5.190000	25.053763
5.200000	25.053763
5.210000	25.053763
5.220000	25.053763
5.230000	25.053763
5.240000	25.053763
5.250000	25.053763
5.260000	25.053763
5.270000	25.053763
5.280000	25.053763
5.290000	25.053763
5.300000	25.053763
5.310000	25.053763
5.320000	25.053763
5.330000	25.053763
5.340000	25.053763
5.350000	25.053763
5.360000	25.053763
5.370000	25.053763
5.380000	25.053763
5.390000	25.053763
5.400000	25.053763
5.410000	25.053763
5.420000	25.053763
5.430000	25.053763
5.440000	25.053763
5.450000	25.053763
5.460000	25.053763
5.470000	25.053763
5.480000	25.053763
5.490000	25.053763
5.500000	25.062069
5.510000	25.062069
5.520000	25.062069
5.530000	25.062069
5.540000	25.062069
5.550000	25.062069
5.560000	25.062069
5.570000	25.062069
5.580000	25.062069
5.590000	25.062069
5.600000	25.062069
5.610000	25.062069
5.620000	25.062069
5.630000	25.062069
5.640000	25.062069
5.650000	25.062069
5.660000	25.062069
5.670000	25.062069
5.680000	25.062069
5.690000	25.062069
5.700000	25.062069
5.710000	25.062069
5.720000	25.062069
5.730000	25.062069
5.740000	25.062069
5.750000	25.062069
5.760000	25.062069
5.770000	25.062069
5.780000	25.062069
5.790000	25.062069
5.800000	25.062069
5.810000	25.062069
5.820000	25.062069
5.830000	25.062069
5.840000	25.062069
5.850000	25.062069
5.860000	25.062069
5.870000	25.062069
5.880000	25.062069
5.890000	25.062069
5.900000	25.062069
5.910000	25.062069
5.920000	25.062069
5.930000	25.062069
5.940000	25.062069
5.950000	25.062069
5.960000	25.062069
5.970000	25.062069
5.980000	25.062069
5.990000	25.062069
6.000000	25.069745
6.010000	25.069745
6.020000	25.069745
6.030000	25.069745
6.040000	25.069745
6.050000	25.069745
6.060000	25.069745
6.070000	25.069745
6.080000	25.069745
6.090000	25.069745
6.100000	25.069745
6.110000	25.069745
6.120000	25.069745
6.130000	25.069745
6.140000	25.069745
6.150000	25.069745
6.160000	25.069745
6.170000	25.069745
6.180000	25.069745
6.190000	25.069745
6.200000	25.069745
6.210000	25.069745
6.220000	25.069745
6.230000	25.069745
6.240000	25.069745
6.250000	25.069745
6.260000	25.069745
6.270000	25.069745
6.280000	25.069745
6.290000	25.069745
6.300000	25.069745
6.310000	25.069745
6.320000	25.069745
6.330000	25.069745
6.340000	25.069745
6.350000	25.069745
6.360000	25.069745
6.370000	25.069745
6.380000	25.069745
6.390000	25.069745
6.400000	25.069745
6.410000	25.069745
6.420000	25.069745
6.430000	25.069745
6.440000	25.069745
6.450000	25.069745
6.460000	25.069745
6.470000	25.069745
6.480000	25.069745
6.490000	25.069745
6.500000	25.076214
6.510000	25.076214
6.520000	25.076214
6.530000	25.076214
6.540000	25.076214
6.550000	25.076214
6.560000	25.076214
6.570000	25.076214
6.580000	25.076214
6.590000	25.076214
6.600000	25.076214
6.610000	25.076214
6.620000	25.076214
6.630000	25.076214
6.640000	25.076214
6.650000	25.076214
6.660000	25.076214
6.670000	25.076214
6.680000	25.076214
6.690000	25.076214
6.700000	25.076214
6.710000	25.076214
6.720000	25.076214
6.730000	25.076214
6.740000	25.076214
6.750000	25.076214
6.760000	25.076214
6.770000	25.076214
6.780000	25.076214
6.790000	25.076214
6.800000	25.076214
6.810000	25.076214
6.820000	25.076214
6.830000	25.076214
6.840000	25.076214
6.850000	25.076214
6.860000	25.076214
6.870000	25.076214
6.880000	25.076214
6.890000	25.076214
6.900000	25.076214
6.910000	25.076214
6.920000	25.076214
6.930000	25.076214
6.940000	25.076214
6.950000	25.076214
6.960000	25.076214
6.970000	25.076214
6.980000	25.076214
6.990000	25.076214
7.000000	25.080950
7.010000	25.080950
7.020000	25.080950
7.030000	25.080950
7.040000	25.080950
7.050000	25.080950
7.060000	25.080950
7.070000	25.080950
7.080000	25.080950
7.090000	25.080950
7.100000	25.080950
7.110000	25.080950
7.120000	25.080950
7.130000	25.080950
7.140000	25.080950
7.150000	25.080950
7.160000	25.080950
7.170000	25.080950
7.180000	25.080950
7.190000	25.080950
7.200000	25.080950
7.210000	25.080950
7.220000	25.080950
7.230000	25.080950
7.240000	25.080950
7.250000	25.080950
7.260000	25.080950
7.270000	25.080950
7.280000	25.080950
7.290000	25.080950
7.300000	25.080950
7.310000	25.080950
7.320000	25.080950
7.330000	25.080950
7.340000	25.080950
7.350000	25.080950
7.360000	25.080950
7.370000	25.080950
7.380000	25.080950
7.390000	25.080950
7.400000	25.080950
7.410000	25.080950
7.420000	25.080950
7.430000	25.080950
7.440000	25.080950
7.450000	25.080950
7.460000	25.080950
7.470000	25.080950
7.480000	25.080950
7.490000	25.080950
7.500000	25.085997
7.510000	25.085997
7.520000	25.085997
7.530000	25.085997
7.540000	25.085997
7.550000	25.085997
7.560000	25.085997
7.570000	25.085997
7.580000	25.085997
7.590000	25.085997
7.600000	25.085997
7.610000	25.085997
7.620000	25.085997
7.630000	25.085997
7.640000	25.085997
7.650000	25.085997
7.660000	25.085997
7.670000	25.085997
7.680000	25.085997
7.690000	25.085997
7.700000	25.085997
7.710000	25.085997
7.720000	25.085997
7.730000	25.085997
7.740000	25.085997
7.750000	25.085997
7.760000	25.085997
7.770000	25.085997
7.780000	25.085997
7.790000	25.085997
7.800000	25.085997
7.810000	25.085997
7.820000	25.085997
7.830000	25.085997
7.840000	25.085997
7.850000	25.085997
7.860000	25.085997
7.870000	25.085997
7.880000	25.085997
7.890000	25.085997
7.900000	25.085997
7.910000	25.085997
7.920000	25.085997
7.930000	25.085997
7.940000	25.085997
7.950000	25.085997
7.960000	25.085997
7.970000	25.085997
7.980000	25.085997
7.990000	25.085997
8.000000	25.089803
8.010000	25.089803
8.020000	25.089803
8.030000	25.089803
8.040000	25.089803
8.050000	25.089803
8.060000	25.089803
8.070000	25.089803
8.080000	25.089803
8.090000	25.089803
8.100000	25.089803
8.110000	25.089803
8.120000	25.089803
8.130000	25.089803
8.140000	25.089803
8.150000	25.089803
8.160000	25.089803
8.170000	25.089803
8.180000	25.089803
8.190000	25.089803
8.200000	25.089803
8.210000	25.089803
8.220000	25.089803
8.230000	25.089803
8.240000	25.089803
8.250000	25.089803
8.260000	25.089803
8.270000	25.089803
8.280000	25.089803
8.290000	25.089803
8.300000	25.089803
8.310000	25.089803
8.320000	25.089803
8.330000	25.089803
8.340000	25.089803
8.350000	25.089803
8.360000	25.089803
8.370000	25.089803
8.380000	25.089803
8.390000	25.089803
8.400000	25.089803
8.410000	25.089803
8.420000	25.089803
8.430000	25.089803
8.440000	25.089803
8.450000	25.089803
8.460000	25.089803
8.470000	25.089803
8.480000	25.089803
8.490000	25.089803
8.500000	25.092282
8.510000	25.092282
8.520000	25.092282
8.530000	25.092282
8.540000	25.092282
8.550000	25.092282
8.560000	25.092282
8.570000	25.092282
8.580000	25.092282
8.590000	25.092282
8.600000	25.092282
8.610000	25.092282
8.620000	25.092282
8.630000	25.092282
8.640000	25.092282
8.650000	25.092282
8.660000	25.092282
8.670000	25.092282
8.680000	25.092282
8.690000	25.092282
8.700000	25.092282
8.710000	25.092282
8.720000	25.092282
8.730000	25.092282
8.740000	25.092282
8.750000	25.092282
8.760000	25.092282
8.770000	25.092282
8.780000	25.092282
8.790000	25.092282
8.800000	25.092282
8.810000	25.092282
8.820000	25.092282
8.830000	25.092282
8.840000	25.092282
8.850000	25.092282
8.860000	25.092282
8.870000	25.092282
8.880000	25.092282
8.890000	25.092282
8.900000	25.092282
8.910000	25.092282
8.920000	25.092282
8.930000	25.092282
8.940000	25.092282
8.950000	25.092282
8.960000	25.092282
8.970000	25.092282
8.980000	25.092282
8.990000	25.092282
9.000000	25.094202
9.010000	25.094202
9.020000	25.094202
9.030000	25.094202
9.040000	25.094202
9.050000	25.094202
9.060000	25.094202
9.070000	25.094202
9.080000	25.094202
9.090000	25.094202
9.100000	25.094202
9.110000	25.094202
9.120000	25.094202
9.130000	25.094202
9.140000	25.094202
9.150000	25.094202
9.160000	25.094202
9.170000	25.094202
9.180000	25.094202
9.190000	25.094202
9.200000	25.094202
9.210000	25.094202
9.220000	25.094202
9.230000	25.094202
9.240000	25.094202
9.250000	25.094202
9.260000	25.094202
9.270000	25.094202
9.280000	25.094202
9.290000	25.094202
9.300000	25.094202
9.310000	25.094202
9.320000	25.094202
9.330000	25.094202
9.340000	25.094202
9.350000	25.094202
9.360000	25.094202
9.370000	25.094202
9.380000	25.094202
9.390000	25.094202
9.400000	25.094202
9.410000	25.094202
9.420000	25.094202
9.430000	25.094202
9.440000	25.094202
9.450000	25.094202
9.460000	25.094202
9.470000	25.094202
9.480000	25.094202
9.490000	25.094202
9.500000	25.095847
9.510000	25.095847
9.520000	25.095847
9.530000	25.095847
9.540000	25.095847
9.550000	25.095847
9.560000	25.095847
9.570000	25.095847
9.580000	25.095847
9.590000	25.095847
9.600000	25.095847
9.610000	25.095847
9.620000	25.095847
9.630000	25.095847
9.640000	25.095847
9.650000	25.095847
9.660000	25.095847
9.670000	25.095847
9.680000	25.095847
9.690000	25.095847
9.700000	25.095847
9.710000	25.095847
9.720000	25.095847
9.730000	25.095847
9.740000	25.095847
9.750000	25.095847
9.760000	25.095847
9.770000	25.095847
9.780000	25.095847
9.790000	25.095847
9.800000	25.095847
9.810000	25.095847
9.820000	25.095847
9.830000	25.095847
9.840000	25.095847
9.850000	25.095847
9.860000	25.095847
9.870000	25.095847
9.880000	25.095847
9.890000	25.095847
9.900000	25.095847
9.910000	25.095847
9.920000	25.095847
9.930000	25.095847
9.940000	25.095847
9.950000	25.095847
9.960000	25.095847
9.970000	25.095847
9.980000	25.095847
9.990000	25.095847
10.000000	25.097130
10.010000	25.097130
10.020000	25.097130
10.030000	25.097130
10.040000	25.097130
10.050000	25.097130
10.060000	25.097130
10.070000	25.097130
10.080000	25.097130
10.090000	25.097130
10.100000	25.097130
10.110000	25.097130
10.120000	25.097130
10.130000	25.097130
10.140000	25.097130
10.150000	25.097130
10.160000	25.097130
10.170000	25.097130
10.180000	25.097130
10.190000	25.097130
10.200000	25.097130
10.210000	25.097130
10.220000	25.097130
10.230000	25.097130
10.240000	25.097130
10.250000	25.097130
10.260000	25.097130
10.270000	25.097130
10.280000	25.097130
10.290000	25.097130
10.300000	25.097130
10.310000	25.097130
10.320000	25.097130
10.330000	25.097130
10.340000	25.097130
10.350000	25.097130
10.360000	25.097130
10.370000	25.097130
10.380000	25.097130
10.390000	25.097130
10.400000	25.097130
10.410000	25.097130
10.420000	25.097130
10.430000	25.097130
10.440000	25.097130
10.450000	25.097130
10.460000	25.097130
10.470000	25.097130
10.480000	25.097130
10.490000	25.097130
10.500000	25.098025
10.510000	25.098025
10.520000	25.098025
10.530000	25.098025
10.540000	25.098025
10.550000	25.098025
10.560000	25.098025
10.570000	25.098025
10.580000	25.098025
10.590000	25.098025
10.600000	25.098025
10.610000	25.098025
10.620000	25.098025
10.630000	25.098025
10.640000	25.098025
10.650000	25.098025
10.660000	25.098025
10.670000	25.098025
10.680000	25.098025
10.690000	25.098025
10.700000	25.098025
10.710000	25.098025
10.720000	25.098025
10.730000	25.098025
10.740000	25.098025
10.750000	25.098025
10.760000	25.098025
10.770000	25.098025
10.780000	25.098025
10.790000	25.098025
10.800000	25.098025
10.810000	25.098025
10.820000	25.098025
10.830000	25.098025
10.840000	25.098025
10.850000	25.098025
10.860000	25.098025
10.870000	25.098025
10.880000	25.098025
10.890000	25.098025
10.900000	25.098025
10.910000	25.098025
10.920000	25.098025
10.930000	25.098025
10.940000	25.098025
10.950000	25.098025
10.960000	25.098025
10.970000	25.098025
10.980000	25.098025
10.990000	25.098025
11.000000	25.097655
11.010000	25.097655
11.020000	25.097655
11.030000	25.097655
11.040000	25.097655
11.050000	25.097655
11.060000	25.097655
11.070000	25.097655
11.080000	25.097655
11.090000	25.097655
11.100000	25.097655
11.110000	25.097655
11.120000	25.097655
11.130000	25.097655
11.140000	25.097655
11.150000	25.097655
11.160000	25.097655
11.170000	25.097655
11.180000	25.097655
11.190000	25.097655
11.200000	25.097655
11.210000	25.097655
11.220000	25.097655
11.230000	25.097655
11.240000	25.097655
11.250000	25.097655
11.260000	25.097655
11.270000	25.097655
11.280000	25.097655
11.290000	25.097655
11.300000	25.097655
11.310000	25.097655
11.320000	25.097655
11.330000	25.097655
11.340000	25.097655
11.350000	25.097655
11.360000	25.097655
11.370000	25.097655
11.380000	25.097655
11.390000	25.097655
11.400000	25.097655
11.410000	25.097655
11.420000	25.097655
11.430000	25.097655
11.440000	25.097655
11.450000	25.097655
11.460000	25.097655
11.470000	25.097655
11.480000	25.097655
11.490000	25.097655
11.500000	25.097173
11.510000	25.097173
11.520000	25.097173
11.530000	25.097173
11.540000	25.097173
11.550000	25.097173
11.560000	25.097173
11.570000	25.097173
11.580000	25.097173
11.590000	25.097173
11.600000	25.097173
11.610000	25.097173
11.620000	25.097173
11.630000	25.097173
11.640000	25.097173
11.650000	25.097173
11.660000	25.097173
11.670000	25.097173
11.680000	25.097173
11.690000	25.097173
11.700000	25.097173
11.710000	25.097173
11.720000	25.097173
11.730000	25.097173
11.740000	25.097173
11.750000	25.097173
11.760000	25.097173
11.770000	25.097173
11.780000	25.097173
11.790000	25.097173
11.800000	25.097173
11.810000	25.097173
11.820000	25.097173
11.830000	25.097173
11.840000	25.097173
11.850000	25.097173
11.860000	25.097173
11.870000	25.097173
11.880000	25.097173
11.890000	25.097173
11.900000	25.097173
11.910000	25.097173
11.920000	25.097173
11.930000	25.097173
11.940000	25.097173
11.950000	25.097173
11.960000	25.097173
11.970000	25.097173
11.980000	25.097173
11.990000	25.097173
12.000000	25.096665
12.010000	25.096665
12.020000	25.096665
12.030000	25.096665
12.040000	25.096665
12.050000	25.096665
12.060000	25.096665
12.070000	25.096665
12.080000	25.096665
12.090000	25.096665
12.100000	25.096665
12.110000	25.096665
12.120000	25.096665
12.130000	25.096665
12.140000	25.096665
12.150000	25.096665
12.160000	25.096665
12.170000	25.096665
12.180000	25.096665
12.190000	25.096665
12.200000	25.096665
12.210000	25.096665
12.220000	25.096665
12.230000	25.096665
12.240000	25.096665
12.250000	25.096665
12.260000	25.096665
12.270000	25.096665
12.280000	25.096665
12.290000	25.096665
12.300000	25.096665
12.310000	25.096665
12.320000	25.096665
12.330000	25.096665
12.340000	25.096665
12.350000	25.096665
12.360000	25.096665
12.370000	25.096665
12.380000	25.096665
12.390000	25.096665
12.400000	25.096665
12.410000	25.096665
12.420000	25.096665
12.430000	25.096665
12.440000	25.096665
12.450000	25.096665
12.460000	25.096665
12.470000	25.096665
12.480000	25.096665
12.490000	25.096665
12.500000	25.095597
12.510000	25.095597
12.520000	25.095597
12.530000	25.095597
12.540000	25.095597
12.550000	25.095597
12.560000	25.095597
12.570000	25.095597
12.580000	25.095597
12.590000	25.095597
12.600000	25.095597
12.610000	25.095597
12.620000	25.095597
12.630000	25.095597
12.640000	25.095597
12.650000	25.095597
12.660000	25.095597
12.670000	25.095597
12.680000	25.095597
12.690000	25.095597
12.700000	25.095597
12.710000	25.095597
12.720000	25.095597
12.730000	25.095597
12.740000	25.095597
12.750000	25.095597
12.760000	25.095597
12.770000	25.095597
12.780000	25.095597
12.790000	25.095597
12.800000	25.095597
12.810000	25.095597
12.820000	25.095597
12.830000	25.095597
12.840000	25.095597
12.850000	25.095597
12.860000	25.095597
12.870000	25.095597
12.880000	25.095597
12.890000	25.095597
12.900000	25.095597
12.910000	25.095597
12.920000	25.095597
12.930000	25.095597
12.940000	25.095597
12.950000	25.095597
12.960000	25.095597
12.970000	25.095597
12.980000	25.095597
12.990000	25.095597
13.000000	25.093953
13.010000	25.093953
13.020000	25.093953
13.030000	25.093953
13.040000	25.093953
13.050000	25.093953
13.060000	25.093953
13.070000	25.093953
13.080000	25.093953
13.090000	25.093953
13.100000	25.093953
13.110000	25.093953
13.120000	25.093953
13.130000	25.093953
13.140000	25.093953
13.150000	25.093953
13.160000	25.093953
13.170000	25.093953
13.180000	25.093953
13.190000	25.093953
13.200000	25.093953
13.210000	25.093953
13.220000	25.093953
13.230000	25.093953
13.240000	25.093953
13.250000	25.093953
13.260000	25.093953
13.270000	25.093953
13.280000	25.093953
13.290000	25.093953
13.300000	25.093953
13.310000	25.093953
13.320000	25.093953
13.330000	25.093953
13.340000	25.093953
13.350000	25.093953
13.360000	25.093953
13.370000	25.093953
13.380000	25.093953
13.390000	25.093953
13.400000	25.093953
13.410000	25.093953
13.420000	25.093953
13.430000	25.093953
13.440000	25.093953
13.450000	25.093953
13.460000	25.093953
13.470000	25.093953
13.480000	25.093953
13.490000	25.093953
13.500000	25.092773
13.510000	25.092773
13.520000	25.092773
13.530000	25.092773
13.540000	25.092773
13.550000	25.092773
13.560000	25.092773
13.570000	25.092773
13.580000	25.092773
13.590000	25.092773
13.600000	25.092773
13.610000	25.092773
13.620000	25.092773
13.630000	25.092773
13.640000	25.092773
13.650000	25.092773
13.660000	25.092773
13.670000	25.092773
13.680000	25.092773
13.690000	25.092773
13.700000	25.092773
13.710000	25.092773
13.720000	25.092773
13.730000	25.092773
13.740000	25.092773
13.750000	25.092773
13.760000	25.092773
13.770000	25.092773
13.780000	25.092773
13.790000	25.092773
13.800000	25.092773
13.810000	25.092773
13.820000	25.092773
13.830000	25.092773
13.840000	25.092773
13.850000	25.092773
13.860000	25.092773
13.870000	25.092773
13.880000	25.092773
13.890000	25.092773
13.900000	25.092773
13.910000	25.092773
13.920000	25.092773
13.930000	25.092773
13.940000	25.092773
13.950000	25.092773
13.960000	25.092773
13.970000	25.092773
13.980000	25.092773
13.990000	25.092773
14.000000	25.090690
14.010000	25.090690
14.020000	25.090690
14.030000	25.090690
14.040000	25.090690
14.050000	25.090690
14.060000	25.090690
14.070000	25.090690
14.080000	25.090690
14.090000	25.090690
14.100000	25.090690
14.110000	25.090690
14.120000	25.090690
14.130000	25.090690
14.140000	25.090690
14.150000	25.090690
14.160000	25.090690
14.170000	25.090690
14.180000	25.090690
14.190000	25.090690
14.200000	25.090690
14.210000	25.090690
14.220000	25.090690
14.230000	25.090690
14.240000	25.090690
14.250000	25.090690
14.260000	25.090690
14.270000	25.090690
14.280000	25.090690
14.290000	25.090690
14.300000	25.090690
14.310000	25.090690
14.320000	25.090690
14.330000	25.090690
14.340000	25.090690
14.350000	25.090690
14.360000	25.090690
14.370000	25.090690
14.380000	25.090690
14.390000	25.090690
14.400000	25.090690
14.410000	25.090690
14.420000	25.090690
14.430000	25.090690
14.440000	25.090690
14.450000	25.090690
14.460000	25.090690
14.470000	25.090690
14.480000	25.090690
14.490000	25.090690
14.500000	25.088236
14.510000	25.088236
14.520000	25.088236
14.530000	25.088236
14.540000	25.088236
14.550000	25.088236
14.560000	25.088236
14.570000	25.088236
14.580000	25.088236
14.590000	25.088236
14.600000	25.088236
14.610000	25.088236
14.620000	25.088236
14.630000	25.088236
14.640000	25.088236
14.650000	25.088236
14.660000	25.088236
14.670000	25.088236
14.680000	25.088236
14.690000	25.088236
14.700000	25.088236
14.710000	25.088236
14.720000	25.088236
14.730000	25.088236
14.740000	25.088236
14.750000	25.088236
14.760000	25.088236
14.770000	25.088236
14.780000	25.088236
14.790000	25.088236
14.800000	25.088236
14.810000	25.088236
14.820000	25.088236
14.830000	25.088236
14.840000	25.088236
14.850000	25.088236
14.860000	25.088236
14.870000	25.088236
14.880000	25.088236
14.890000	25.088236
14.900000	25.088236
14.910000	25.088236
14.920000	25.088236
14.930000	25.088236
14.940000	25.088236
14.950000	25.088236
14.960000	25.088236
14.970000	25.088236
14.980000	25.088236
14.990000	25.088236
15.000000	25.086203
15.010000	25.086203
15.020000	25.086203
15.030000	25.086203
15.040000	25.086203
15.050000	25.086203
15.060000	25.086203
15.070000	25.086203
15.080000	25.086203
15.090000	25.086203
15.100000	25.086203
15.110000	25.086203
15.120000	25.086203
15.130000	25.086203
15.140000	25.086203
15.150000	25.086203
15.160000	25.086203
15.170000	25.086203
15.180000	25.086203
15.190000	25.086203
15.200000	25.086203
15.210000	25.086203
15.220000	25.086203
15.230000	25.086203
15.240000	25.086203
15.250000	25.086203
15.260000	25.086203
15.270000	25.086203
15.280000	25.086203
15.290000	25.086203
15.300000	25.086203
15.310000	25.086203
15.320000	25.086203
15.330000	25.086203
15.340000	25.086203
15.350000	25.086203
15.360000	25.086203
15.370000	25.086203
15.380000	25.086203
15.390000	25.086203
15.400000	25.086203
15.410000	25.086203
15.420000	25.086203
15.430000	25.086203
15.440000	25.086203
15.450000	25.086203
15.460000	25.086203
15.470000	25.086203
15.480000	25.086203
15.490000	25.086203
15.500000	25.083861
15.510000	25.083861
15.520000	25.083861
15.530000	25.083861
15.540000	25.083861
15.550000	25.083861
15.560000	25.083861
15.570000	25.083861
15.580000	25.083861
15.590000	25.083861
15.600000	25.083861
15.610000	25.083861
15.620000	25.083861
15.630000	25.083861
15.640000	25.083861
15.650000	25.083861
15.660000	25.083861
15.670000	25.083861
15.680000	25.083861
15.690000	25.083861
15.700000	25.083861
15.710000	25.083861
15.720000	25.083861
15.730000	25.083861
15.740000	25.083861
15.750000	25.083861
15.760000	25.083861
15.770000	25.083861
15.780000	25.083861
15.790000	25.083861
15.800000	25.083861
15.810000	25.083861
15.820000	25.083861
15.830000	25.083861
15.840000	25.083861
15.850000	25.083861
15.860000	25.083861
15.870000	25.083861
15.880000	25.083861
15.890000	25.083861
15.900000	25.083861
15.910000	25.083861
15.920000	25.083861
15.930000	25.083861
15.940000	25.083861
15.950000	25.083861
15.960000	25.083861
15.970000	25.083861
15.980000	25.083861
15.990000	25.083861
16.000000	25.081183
16.010000	25.081183
16.020000	25.081183
16.030000	25.081183
16.040000	25.081183
16.050000	25.081183
16.060000	25.081183
16.070000	25.081183
16.080000	25.081183
16.090000	25.081183
16.100000	25.081183
16.110000	25.081183
16.120000	25.081183
16.130000	25.081183
16.140000	25.081183
16.150000	25.081183
16.160000	25.081183
16.170000	25.081183
16.180000	25.081183
16.190000	25.081183
16.200000	25.081183
16.210000	25.081183
16.220000	25.081183
16.230000	25.081183
16.240000	25.081183
16.250000	25.081183
16.260000	25.081183
16.270000	25.081183
16.280000	25.081183
16.290000	25.081183
16.300000	25.081183
16.310000	25.081183
16.320000	25.081183
16.330000	25.081183
16.340000	25.081183
16.350000	25.081183
16.360000	25.081183
16.370000	25.081183
16.380000	25.081183
16.390000	25.081183
16.400000	25.081183
16.410000	25.081183
16.420000	25.081183
16.430000	25.081183
16.440000	25.081183
16.450000	25.081183
16.460000	25.081183
16.470000	25.081183
16.480000	25.081183
16.490000	25.081183
16.500000	25.079125
16.510000	25.079125
16.520000	25.079125
16.530000	25.079125
16.540000	25.079125
16.550000	25.079125
16.560000	25.079125
16.570000	25.079125
16.580000	25.079125
16.590000	25.079125
16.600000	25.079125
16.610000	25.079125
16.620000	25.079125
16.630000	25.079125
16.640000	25.079125
16.650000	25.079125
16.660000	25.079125
16.670000	25.079125
16.680000	25.079125
16.690000	25.079125
16.700000	25.079125
16.710000	25.079125
16.720000	25.079125
16.730000	25.079125
16.740000	25.079125
16.750000	25.079125
16.760000	25.079125
16.770000	25.079125
16.780000	25.079125
16.790000	25.079125
16.800000	25.079125
16.810000	25.079125
16.820000	25.079125
16.830000	25.079125
16.840000	25.079125
16.850000	25.079125
16.860000	25.079125
16.870000	25.079125
16.880000	25.079125
16.890000	25.079125
16.900000	25.079125
16.910000	25.079125
16.920000	25.079125
16.930000	25.079125
16.940000	25.079125
16.950000	25.079125
16.960000	25.079125
16.970000	25.079125
16.980000	25.079125
16.990000	25.079125
17.000000	25.076799
17.010000	25.076799
17.020000	25.076799
17.030000	25.076799
17.040000	25.076799
17.050000	25.076799
17.060000	25.076799
17.070000	25.076799
17.080000	25.076799
17.090000	25.076799
17.100000	25.076799
17.110000	25.076799
17.120000	25.076799
17.130000	25.076799
17.140000	25.076799
17.150000	25.076799
17.160000	25.076799
17.170000	25.076799
17.180000	25.076799
17.190000	25.076799
17.200000	25.076799
17.210000	25.076799
17.220000	25.076799
17.230000	25.076799
17.240000	25.076799
17.250000	25.076799
17.260000	25.076799
17.270000	25.076799
17.280000	25.076799
17.290000	25.076799
17.300000	25.076799
17.310000	25.076799
17.320000	25.076799
17.330000	25.076799
17.340000	25.076799
17.350000	25.076799
17.360000	25.076799
17.370000	25.076799
17.380000	25.076799
17.390000	25.076799
17.400000	25.076799
17.410000	25.076799
17.420000	25.076799
17.430000	25.076799
17.440000	25.076799
17.450000	25.076799
17.460000	25.076799
17.470000	25.076799
17.480000	25.076799
17.490000	25.076799
17.500000	25.074250
17.510000	25.074250
17.520000	25.074250
17.530000	25.074250
17.540000	25.074250
17.550000	25.074250
17.560000	25.074250
17.570000	25.074250
17.580000	25.074250
17.590000	25.074250
17.600000	25.074250
17.610000	25.074250
17.620000	25.074250
17.630000	25.074250
17.640000	25.074250
17.650000	25.074250
17.660000	25.074250
17.670000	25.074250
17.680000	25.074250
17.690000	25.074250
17.700000	25.074250
17.710000	25.074250
17.720000	25.074250
17.730000	25.074250
17.740000	25.074250
17.750000	25.074250
17.760000	25.074250
17.770000	25.074250
17.780000	25.074250
17.790000	25.074250
17.800000	25.074250
17.810000	25.074250
17.820000	25.074250
17.830000	25.074250
17.840000	25.074250
17.850000	25.074250
17.860000	25.074250
17.870000	25.074250
17.880000	25.074250
17.890000	25.074250
17.900000	25.074250
17.910000	25.074250
17.920000	25.074250
17.930000	25.074250
17.940000	25.074250
17.950000	25.074250
17.960000	25.074250
17.970000	25.074250
17.980000	25.074250
17.990000	25.074250
