LabVIEW Measurement	
Writer_Version	2
Reader_Version	2
Separator	Tab
Decimal_Separator	.
Multi_Headings	No
X_Columns	One
Time_Pref	Absolute
Operator	biomech-dyno
Date	2023/05/24
Time	15:19:49.9492761999999796612
***End_of_Header***	
	
Channels	1	
Samples	10	
Date	2023/05/24	
Time	15:28:23.7389872999995707534	
X_Dimension	Time	
X0	0.0000000000000000E+0	
Delta_X	0.010000	
***End_of_Header***		
X_Value	Untitled	Comment
0.000000	25.132293
0.010000	25.132293
0.020000	25.132293
0.030000	25.132293
0.040000	25.132293
0.050000	25.132293
0.060000	25.132293
0.070000	25.132293
0.080000	25.132293
0.090000	25.132293
0.100000	25.132293
0.110000	25.132293
0.120000	25.132293
0.130000	25.132293
0.140000	25.132293
0.150000	25.132293
0.160000	25.132293
0.170000	25.132293
0.180000	25.132293
0.190000	25.132293
0.200000	25.132293
0.210000	25.132293
0.220000	25.132293
0.230000	25.132293
0.240000	25.132293
0.250000	25.132293
0.260000	25.132293
0.270000	25.132293
0.280000	25.132293
0.290000	25.132293
0.300000	25.132293
0.310000	25.132293
0.320000	25.132293
0.330000	25.132293
0.340000	25.132293
0.350000	25.132293
0.360000	25.132293
0.370000	25.132293
0.380000	25.132293
0.390000	25.132293
0.400000	25.132293
0.410000	25.132293
0.420000	25.132293
0.430000	25.132293
0.440000	25.132293
0.450000	25.132293
0.460000	25.132293
0.470000	25.132293
0.480000	25.132293
0.490000	25.132293
0.500000	25.188678
0.510000	25.188678
0.520000	25.188678
0.530000	25.188678
0.540000	25.188678
0.550000	25.188678
0.560000	25.188678
0.570000	25.188678
0.580000	25.188678
0.590000	25.188678
0.600000	25.188678
0.610000	25.188678
0.620000	25.188678
0.630000	25.188678
0.640000	25.188678
0.650000	25.188678
0.660000	25.188678
0.670000	25.188678
0.680000	25.188678
0.690000	25.188678
0.700000	25.188678
0.710000	25.188678
0.720000	25.188678
0.730000	25.188678
0.740000	25.188678
0.750000	25.188678
0.760000	25.188678
0.770000	25.188678
0.780000	25.188678
0.790000	25.188678
0.800000	25.188678
0.810000	25.188678
0.820000	25.188678
0.830000	25.188678
0.840000	25.188678
0.850000	25.188678
0.860000	25.188678
0.870000	25.188678
0.880000	25.188678
0.890000	25.188678
0.900000	25.188678
0.910000	25.188678
0.920000	25.188678
0.930000	25.188678
0.940000	25.188678
0.950000	25.188678
0.960000	25.188678
0.970000	25.188678
0.980000	25.188678
0.990000	25.188678
1.000000	25.793784
1.010000	25.793784
1.020000	25.793784
1.030000	25.793784
1.040000	25.793784
1.050000	25.793784
1.060000	25.793784
1.070000	25.793784
1.080000	25.793784
1.090000	25.793784
1.100000	25.793784
1.110000	25.793784
1.120000	25.793784
1.130000	25.793784
1.140000	25.793784
1.150000	25.793784
1.160000	25.793784
1.170000	25.793784
1.180000	25.793784
1.190000	25.793784
1.200000	25.793784
1.210000	25.793784
1.220000	25.793784
1.230000	25.793784
1.240000	25.793784
1.250000	25.793784
1.260000	25.793784
1.270000	25.793784
1.280000	25.793784
1.290000	25.793784
1.300000	25.793784
1.310000	25.793784
1.320000	25.793784
1.330000	25.793784
1.340000	25.793784
1.350000	25.793784
1.360000	25.793784
1.370000	25.793784
1.380000	25.793784
1.390000	25.793784
1.400000	25.793784
1.410000	25.793784
1.420000	25.793784
1.430000	25.793784
1.440000	25.793784
1.450000	25.793784
1.460000	25.793784
1.470000	25.793784
1.480000	25.793784
1.490000	25.793784
1.500000	27.220686
1.510000	27.220686
1.520000	27.220686
1.530000	27.220686
1.540000	27.220686
1.550000	27.220686
1.560000	27.220686
1.570000	27.220686
1.580000	27.220686
1.590000	27.220686
1.600000	27.220686
1.610000	27.220686
1.620000	27.220686
1.630000	27.220686
1.640000	27.220686
1.650000	27.220686
1.660000	27.220686
1.670000	27.220686
1.680000	27.220686
1.690000	27.220686
1.700000	27.220686
1.710000	27.220686
1.720000	27.220686
1.730000	27.220686
1.740000	27.220686
1.750000	27.220686
1.760000	27.220686
1.770000	27.220686
1.780000	27.220686
1.790000	27.220686
1.800000	27.220686
1.810000	27.220686
1.820000	27.220686
1.830000	27.220686
1.840000	27.220686
1.850000	27.220686
1.860000	27.220686
1.870000	27.220686
1.880000	27.220686
1.890000	27.220686
1.900000	27.220686
1.910000	27.220686
1.920000	27.220686
1.930000	27.220686
1.940000	27.220686
1.950000	27.220686
1.960000	27.220686
1.970000	27.220686
1.980000	27.220686
1.990000	27.220686
2.000000	29.316920
2.010000	29.316920
2.020000	29.316920
2.030000	29.316920
2.040000	29.316920
2.050000	29.316920
2.060000	29.316920
2.070000	29.316920
2.080000	29.316920
2.090000	29.316920
2.100000	29.316920
2.110000	29.316920
2.120000	29.316920
2.130000	29.316920
2.140000	29.316920
2.150000	29.316920
2.160000	29.316920
2.170000	29.316920
2.180000	29.316920
2.190000	29.316920
2.200000	29.316920
2.210000	29.316920
2.220000	29.316920
2.230000	29.316920
2.240000	29.316920
2.250000	29.316920
2.260000	29.316920
2.270000	29.316920
2.280000	29.316920
2.290000	29.316920
2.300000	29.316920
2.310000	29.316920
2.320000	29.316920
2.330000	29.316920
2.340000	29.316920
2.350000	29.316920
2.360000	29.316920
2.370000	29.316920
2.380000	29.316920
2.390000	29.316920
2.400000	29.316920
2.410000	29.316920
2.420000	29.316920
2.430000	29.316920
2.440000	29.316920
2.450000	29.316920
2.460000	29.316920
2.470000	29.316920
2.480000	29.316920
2.490000	29.316920
2.500000	31.919539
2.510000	31.919539
2.520000	31.919539
2.530000	31.919539
2.540000	31.919539
2.550000	31.919539
2.560000	31.919539
2.570000	31.919539
2.580000	31.919539
2.590000	31.919539
2.600000	31.919539
2.610000	31.919539
2.620000	31.919539
2.630000	31.919539
2.640000	31.919539
2.650000	31.919539
2.660000	31.919539
2.670000	31.919539
2.680000	31.919539
2.690000	31.919539
2.700000	31.919539
2.710000	31.919539
2.720000	31.919539
2.730000	31.919539
2.740000	31.919539
2.750000	31.919539
2.760000	31.919539
2.770000	31.919539
2.780000	31.919539
2.790000	31.919539
2.800000	31.919539
2.810000	31.919539
2.820000	31.919539
2.830000	31.919539
2.840000	31.919539
2.850000	31.919539
2.860000	31.919539
2.870000	31.919539
2.880000	31.919539
2.890000	31.919539
2.900000	31.919539
2.910000	31.919539
2.920000	31.919539
2.930000	31.919539
2.940000	31.919539
2.950000	31.919539
2.960000	31.919539
2.970000	31.919539
2.980000	31.919539
2.990000	31.919539
3.000000	34.921353
3.010000	34.921353
3.020000	34.921353
3.030000	34.921353
3.040000	34.921353
3.050000	34.921353
3.060000	34.921353
3.070000	34.921353
3.080000	34.921353
3.090000	34.921353
3.100000	34.921353
3.110000	34.921353
3.120000	34.921353
3.130000	34.921353
3.140000	34.921353
3.150000	34.921353
3.160000	34.921353
3.170000	34.921353
3.180000	34.921353
3.190000	34.921353
3.200000	34.921353
3.210000	34.921353
3.220000	34.921353
3.230000	34.921353
3.240000	34.921353
3.250000	34.921353
3.260000	34.921353
3.270000	34.921353
3.280000	34.921353
3.290000	34.921353
3.300000	34.921353
3.310000	34.921353
3.320000	34.921353
3.330000	34.921353
3.340000	34.921353
3.350000	34.921353
3.360000	34.921353
3.370000	34.921353
3.380000	34.921353
3.390000	34.921353
3.400000	34.921353
3.410000	34.921353
3.420000	34.921353
3.430000	34.921353
3.440000	34.921353
3.450000	34.921353
3.460000	34.921353
3.470000	34.921353
3.480000	34.921353
3.490000	34.921353
3.500000	38.073798
3.510000	38.073798
3.520000	38.073798
3.530000	38.073798
3.540000	38.073798
3.550000	38.073798
3.560000	38.073798
3.570000	38.073798
3.580000	38.073798
3.590000	38.073798
3.600000	38.073798
3.610000	38.073798
3.620000	38.073798
3.630000	38.073798
3.640000	38.073798
3.650000	38.073798
3.660000	38.073798
3.670000	38.073798
3.680000	38.073798
3.690000	38.073798
3.700000	38.073798
3.710000	38.073798
3.720000	38.073798
3.730000	38.073798
3.740000	38.073798
3.750000	38.073798
3.760000	38.073798
3.770000	38.073798
3.780000	38.073798
3.790000	38.073798
3.800000	38.073798
3.810000	38.073798
3.820000	38.073798
3.830000	38.073798
3.840000	38.073798
3.850000	38.073798
3.860000	38.073798
3.870000	38.073798
3.880000	38.073798
3.890000	38.073798
3.900000	38.073798
3.910000	38.073798
3.920000	38.073798
3.930000	38.073798
3.940000	38.073798
3.950000	38.073798
3.960000	38.073798
3.970000	38.073798
3.980000	38.073798
3.990000	38.073798
4.000000	40.662804
4.010000	40.662804
4.020000	40.662804
4.030000	40.662804
4.040000	40.662804
4.050000	40.662804
4.060000	40.662804
4.070000	40.662804
4.080000	40.662804
4.090000	40.662804
4.100000	40.662804
4.110000	40.662804
4.120000	40.662804
4.130000	40.662804
4.140000	40.662804
4.150000	40.662804
4.160000	40.662804
4.170000	40.662804
4.180000	40.662804
4.190000	40.662804
4.200000	40.662804
4.210000	40.662804
4.220000	40.662804
4.230000	40.662804
4.240000	40.662804
4.250000	40.662804
4.260000	40.662804
4.270000	40.662804
4.280000	40.662804
4.290000	40.662804
4.300000	40.662804
4.310000	40.662804
4.320000	40.662804
4.330000	40.662804
4.340000	40.662804
4.350000	40.662804
4.360000	40.662804
4.370000	40.662804
4.380000	40.662804
4.390000	40.662804
4.400000	40.662804
4.410000	40.662804
4.420000	40.662804
4.430000	40.662804
4.440000	40.662804
4.450000	40.662804
4.460000	40.662804
4.470000	40.662804
4.480000	40.662804
4.490000	40.662804
4.500000	42.599031
4.510000	42.599031
4.520000	42.599031
4.530000	42.599031
4.540000	42.599031
4.550000	42.599031
4.560000	42.599031
4.570000	42.599031
4.580000	42.599031
4.590000	42.599031
4.600000	42.599031
4.610000	42.599031
4.620000	42.599031
4.630000	42.599031
4.640000	42.599031
4.650000	42.599031
4.660000	42.599031
4.670000	42.599031
4.680000	42.599031
4.690000	42.599031
4.700000	42.599031
4.710000	42.599031
4.720000	42.599031
4.730000	42.599031
4.740000	42.599031
4.750000	42.599031
4.760000	42.599031
4.770000	42.599031
4.780000	42.599031
4.790000	42.599031
4.800000	42.599031
4.810000	42.599031
4.820000	42.599031
4.830000	42.599031
4.840000	42.599031
4.850000	42.599031
4.860000	42.599031
4.870000	42.599031
4.880000	42.599031
4.890000	42.599031
4.900000	42.599031
4.910000	42.599031
4.920000	42.599031
4.930000	42.599031
4.940000	42.599031
4.950000	42.599031
4.960000	42.599031
4.970000	42.599031
4.980000	42.599031
4.990000	42.599031
5.000000	44.000176
5.010000	44.000176
5.020000	44.000176
5.030000	44.000176
5.040000	44.000176
5.050000	44.000176
5.060000	44.000176
5.070000	44.000176
5.080000	44.000176
5.090000	44.000176
5.100000	44.000176
5.110000	44.000176
5.120000	44.000176
5.130000	44.000176
5.140000	44.000176
5.150000	44.000176
5.160000	44.000176
5.170000	44.000176
5.180000	44.000176
5.190000	44.000176
5.200000	44.000176
5.210000	44.000176
5.220000	44.000176
5.230000	44.000176
5.240000	44.000176
5.250000	44.000176
5.260000	44.000176
5.270000	44.000176
5.280000	44.000176
5.290000	44.000176
5.300000	44.000176
5.310000	44.000176
5.320000	44.000176
5.330000	44.000176
5.340000	44.000176
5.350000	44.000176
5.360000	44.000176
5.370000	44.000176
5.380000	44.000176
5.390000	44.000176
5.400000	44.000176
5.410000	44.000176
5.420000	44.000176
5.430000	44.000176
5.440000	44.000176
5.450000	44.000176
5.460000	44.000176
5.470000	44.000176
5.480000	44.000176
5.490000	44.000176
5.500000	44.971746
5.510000	44.971746
5.520000	44.971746
5.530000	44.971746
5.540000	44.971746
5.550000	44.971746
5.560000	44.971746
5.570000	44.971746
5.580000	44.971746
5.590000	44.971746
5.600000	44.971746
5.610000	44.971746
5.620000	44.971746
5.630000	44.971746
5.640000	44.971746
5.650000	44.971746
5.660000	44.971746
5.670000	44.971746
5.680000	44.971746
5.690000	44.971746
5.700000	44.971746
5.710000	44.971746
5.720000	44.971746
5.730000	44.971746
5.740000	44.971746
5.750000	44.971746
5.760000	44.971746
5.770000	44.971746
5.780000	44.971746
5.790000	44.971746
5.800000	44.971746
5.810000	44.971746
5.820000	44.971746
5.830000	44.971746
5.840000	44.971746
5.850000	44.971746
5.860000	44.971746
5.870000	44.971746
5.880000	44.971746
5.890000	44.971746
5.900000	44.971746
5.910000	44.971746
5.920000	44.971746
5.930000	44.971746
5.940000	44.971746
5.950000	44.971746
5.960000	44.971746
5.970000	44.971746
5.980000	44.971746
5.990000	44.971746
6.000000	45.611528
6.010000	45.611528
6.020000	45.611528
6.030000	45.611528
6.040000	45.611528
6.050000	45.611528
6.060000	45.611528
6.070000	45.611528
6.080000	45.611528
6.090000	45.611528
6.100000	45.611528
6.110000	45.611528
6.120000	45.611528
6.130000	45.611528
6.140000	45.611528
6.150000	45.611528
6.160000	45.611528
6.170000	45.611528
6.180000	45.611528
6.190000	45.611528
6.200000	45.611528
6.210000	45.611528
6.220000	45.611528
6.230000	45.611528
6.240000	45.611528
6.250000	45.611528
6.260000	45.611528
6.270000	45.611528
6.280000	45.611528
6.290000	45.611528
6.300000	45.611528
6.310000	45.611528
6.320000	45.611528
6.330000	45.611528
6.340000	45.611528
6.350000	45.611528
6.360000	45.611528
6.370000	45.611528
6.380000	45.611528
6.390000	45.611528
6.400000	45.611528
6.410000	45.611528
6.420000	45.611528
6.430000	45.611528
6.440000	45.611528
6.450000	45.611528
6.460000	45.611528
6.470000	45.611528
6.480000	45.611528
6.490000	45.611528
6.500000	45.992700
6.510000	45.992700
6.520000	45.992700
6.530000	45.992700
6.540000	45.992700
6.550000	45.992700
6.560000	45.992700
6.570000	45.992700
6.580000	45.992700
6.590000	45.992700
6.600000	45.992700
6.610000	45.992700
6.620000	45.992700
6.630000	45.992700
6.640000	45.992700
6.650000	45.992700
6.660000	45.992700
6.670000	45.992700
6.680000	45.992700
6.690000	45.992700
6.700000	45.992700
6.710000	45.992700
6.720000	45.992700
6.730000	45.992700
6.740000	45.992700
6.750000	45.992700
6.760000	45.992700
6.770000	45.992700
6.780000	45.992700
6.790000	45.992700
6.800000	45.992700
6.810000	45.992700
6.820000	45.992700
6.830000	45.992700
6.840000	45.992700
6.850000	45.992700
6.860000	45.992700
6.870000	45.992700
6.880000	45.992700
6.890000	45.992700
6.900000	45.992700
6.910000	45.992700
6.920000	45.992700
6.930000	45.992700
6.940000	45.992700
6.950000	45.992700
6.960000	45.992700
6.970000	45.992700
6.980000	45.992700
6.990000	45.992700
7.000000	46.179121
7.010000	46.179121
7.020000	46.179121
7.030000	46.179121
7.040000	46.179121
7.050000	46.179121
7.060000	46.179121
7.070000	46.179121
7.080000	46.179121
7.090000	46.179121
7.100000	46.179121
7.110000	46.179121
7.120000	46.179121
7.130000	46.179121
7.140000	46.179121
7.150000	46.179121
7.160000	46.179121
7.170000	46.179121
7.180000	46.179121
7.190000	46.179121
7.200000	46.179121
7.210000	46.179121
7.220000	46.179121
7.230000	46.179121
7.240000	46.179121
7.250000	46.179121
7.260000	46.179121
7.270000	46.179121
7.280000	46.179121
7.290000	46.179121
7.300000	46.179121
7.310000	46.179121
7.320000	46.179121
7.330000	46.179121
7.340000	46.179121
7.350000	46.179121
7.360000	46.179121
7.370000	46.179121
7.380000	46.179121
7.390000	46.179121
7.400000	46.179121
7.410000	46.179121
7.420000	46.179121
7.430000	46.179121
7.440000	46.179121
7.450000	46.179121
7.460000	46.179121
7.470000	46.179121
7.480000	46.179121
7.490000	46.179121
7.500000	46.218197
7.510000	46.218197
7.520000	46.218197
7.530000	46.218197
7.540000	46.218197
7.550000	46.218197
7.560000	46.218197
7.570000	46.218197
7.580000	46.218197
7.590000	46.218197
7.600000	46.218197
7.610000	46.218197
7.620000	46.218197
7.630000	46.218197
7.640000	46.218197
7.650000	46.218197
7.660000	46.218197
7.670000	46.218197
7.680000	46.218197
7.690000	46.218197
7.700000	46.218197
7.710000	46.218197
7.720000	46.218197
7.730000	46.218197
7.740000	46.218197
7.750000	46.218197
7.760000	46.218197
7.770000	46.218197
7.780000	46.218197
7.790000	46.218197
7.800000	46.218197
7.810000	46.218197
7.820000	46.218197
7.830000	46.218197
7.840000	46.218197
7.850000	46.218197
7.860000	46.218197
7.870000	46.218197
7.880000	46.218197
7.890000	46.218197
7.900000	46.218197
7.910000	46.218197
7.920000	46.218197
7.930000	46.218197
7.940000	46.218197
7.950000	46.218197
7.960000	46.218197
7.970000	46.218197
7.980000	46.218197
7.990000	46.218197
8.000000	46.146467
8.010000	46.146467
8.020000	46.146467
8.030000	46.146467
8.040000	46.146467
8.050000	46.146467
8.060000	46.146467
8.070000	46.146467
8.080000	46.146467
8.090000	46.146467
8.100000	46.146467
8.110000	46.146467
8.120000	46.146467
8.130000	46.146467
8.140000	46.146467
8.150000	46.146467
8.160000	46.146467
8.170000	46.146467
8.180000	46.146467
8.190000	46.146467
8.200000	46.146467
8.210000	46.146467
8.220000	46.146467
8.230000	46.146467
8.240000	46.146467
8.250000	46.146467
8.260000	46.146467
8.270000	46.146467
8.280000	46.146467
8.290000	46.146467
8.300000	46.146467
8.310000	46.146467
8.320000	46.146467
8.330000	46.146467
8.340000	46.146467
8.350000	46.146467
8.360000	46.146467
8.370000	46.146467
8.380000	46.146467
8.390000	46.146467
8.400000	46.146467
8.410000	46.146467
8.420000	46.146467
8.430000	46.146467
8.440000	46.146467
8.450000	46.146467
8.460000	46.146467
8.470000	46.146467
8.480000	46.146467
8.490000	46.146467
8.500000	45.988740
8.510000	45.988740
8.520000	45.988740
8.530000	45.988740
8.540000	45.988740
8.550000	45.988740
8.560000	45.988740
8.570000	45.988740
8.580000	45.988740
8.590000	45.988740
8.600000	45.988740
8.610000	45.988740
8.620000	45.988740
8.630000	45.988740
8.640000	45.988740
8.650000	45.988740
8.660000	45.988740
8.670000	45.988740
8.680000	45.988740
8.690000	45.988740
8.700000	45.988740
8.710000	45.988740
8.720000	45.988740
8.730000	45.988740
8.740000	45.988740
8.750000	45.988740
8.760000	45.988740
8.770000	45.988740
8.780000	45.988740
8.790000	45.988740
8.800000	45.988740
8.810000	45.988740
8.820000	45.988740
8.830000	45.988740
8.840000	45.988740
8.850000	45.988740
8.860000	45.988740
8.870000	45.988740
8.880000	45.988740
8.890000	45.988740
8.900000	45.988740
8.910000	45.988740
8.920000	45.988740
8.930000	45.988740
8.940000	45.988740
8.950000	45.988740
8.960000	45.988740
8.970000	45.988740
8.980000	45.988740
8.990000	45.988740
9.000000	45.765962
9.010000	45.765962
9.020000	45.765962
9.030000	45.765962
9.040000	45.765962
9.050000	45.765962
9.060000	45.765962
9.070000	45.765962
9.080000	45.765962
9.090000	45.765962
9.100000	45.765962
9.110000	45.765962
9.120000	45.765962
9.130000	45.765962
9.140000	45.765962
9.150000	45.765962
9.160000	45.765962
9.170000	45.765962
9.180000	45.765962
9.190000	45.765962
9.200000	45.765962
9.210000	45.765962
9.220000	45.765962
9.230000	45.765962
9.240000	45.765962
9.250000	45.765962
9.260000	45.765962
9.270000	45.765962
9.280000	45.765962
9.290000	45.765962
9.300000	45.765962
9.310000	45.765962
9.320000	45.765962
9.330000	45.765962
9.340000	45.765962
9.350000	45.765962
9.360000	45.765962
9.370000	45.765962
9.380000	45.765962
9.390000	45.765962
9.400000	45.765962
9.410000	45.765962
9.420000	45.765962
9.430000	45.765962
9.440000	45.765962
9.450000	45.765962
9.460000	45.765962
9.470000	45.765962
9.480000	45.765962
9.490000	45.765962
9.500000	45.498694
9.510000	45.498694
9.520000	45.498694
9.530000	45.498694
9.540000	45.498694
9.550000	45.498694
9.560000	45.498694
9.570000	45.498694
9.580000	45.498694
9.590000	45.498694
9.600000	45.498694
9.610000	45.498694
9.620000	45.498694
9.630000	45.498694
9.640000	45.498694
9.650000	45.498694
9.660000	45.498694
9.670000	45.498694
9.680000	45.498694
9.690000	45.498694
9.700000	45.498694
9.710000	45.498694
9.720000	45.498694
9.730000	45.498694
9.740000	45.498694
9.750000	45.498694
9.760000	45.498694
9.770000	45.498694
9.780000	45.498694
9.790000	45.498694
9.800000	45.498694
9.810000	45.498694
9.820000	45.498694
9.830000	45.498694
9.840000	45.498694
9.850000	45.498694
9.860000	45.498694
9.870000	45.498694
9.880000	45.498694
9.890000	45.498694
9.900000	45.498694
9.910000	45.498694
9.920000	45.498694
9.930000	45.498694
9.940000	45.498694
9.950000	45.498694
9.960000	45.498694
9.970000	45.498694
9.980000	45.498694
9.990000	45.498694
10.000000	45.189955
10.010000	45.189955
10.020000	45.189955
10.030000	45.189955
10.040000	45.189955
10.050000	45.189955
10.060000	45.189955
10.070000	45.189955
10.080000	45.189955
10.090000	45.189955
10.100000	45.189955
10.110000	45.189955
10.120000	45.189955
10.130000	45.189955
10.140000	45.189955
10.150000	45.189955
10.160000	45.189955
10.170000	45.189955
10.180000	45.189955
10.190000	45.189955
10.200000	45.189955
10.210000	45.189955
10.220000	45.189955
10.230000	45.189955
10.240000	45.189955
10.250000	45.189955
10.260000	45.189955
10.270000	45.189955
10.280000	45.189955
10.290000	45.189955
10.300000	45.189955
10.310000	45.189955
10.320000	45.189955
10.330000	45.189955
10.340000	45.189955
10.350000	45.189955
10.360000	45.189955
10.370000	45.189955
10.380000	45.189955
10.390000	45.189955
10.400000	45.189955
10.410000	45.189955
10.420000	45.189955
10.430000	45.189955
10.440000	45.189955
10.450000	45.189955
10.460000	45.189955
10.470000	45.189955
10.480000	45.189955
10.490000	45.189955
10.500000	44.851159
10.510000	44.851159
10.520000	44.851159
10.530000	44.851159
10.540000	44.851159
10.550000	44.851159
10.560000	44.851159
10.570000	44.851159
10.580000	44.851159
10.590000	44.851159
10.600000	44.851159
10.610000	44.851159
10.620000	44.851159
10.630000	44.851159
10.640000	44.851159
10.650000	44.851159
10.660000	44.851159
10.670000	44.851159
10.680000	44.851159
10.690000	44.851159
10.700000	44.851159
10.710000	44.851159
10.720000	44.851159
10.730000	44.851159
10.740000	44.851159
10.750000	44.851159
10.760000	44.851159
10.770000	44.851159
10.780000	44.851159
10.790000	44.851159
10.800000	44.851159
10.810000	44.851159
10.820000	44.851159
10.830000	44.851159
10.840000	44.851159
10.850000	44.851159
10.860000	44.851159
10.870000	44.851159
10.880000	44.851159
10.890000	44.851159
10.900000	44.851159
10.910000	44.851159
10.920000	44.851159
10.930000	44.851159
10.940000	44.851159
10.950000	44.851159
10.960000	44.851159
10.970000	44.851159
10.980000	44.851159
10.990000	44.851159
11.000000	44.494356
11.010000	44.494356
11.020000	44.494356
11.030000	44.494356
11.040000	44.494356
11.050000	44.494356
11.060000	44.494356
11.070000	44.494356
11.080000	44.494356
11.090000	44.494356
11.100000	44.494356
11.110000	44.494356
11.120000	44.494356
11.130000	44.494356
11.140000	44.494356
11.150000	44.494356
11.160000	44.494356
11.170000	44.494356
11.180000	44.494356
11.190000	44.494356
11.200000	44.494356
11.210000	44.494356
11.220000	44.494356
11.230000	44.494356
11.240000	44.494356
11.250000	44.494356
11.260000	44.494356
11.270000	44.494356
11.280000	44.494356
11.290000	44.494356
11.300000	44.494356
11.310000	44.494356
11.320000	44.494356
11.330000	44.494356
11.340000	44.494356
11.350000	44.494356
11.360000	44.494356
11.370000	44.494356
11.380000	44.494356
11.390000	44.494356
11.400000	44.494356
11.410000	44.494356
11.420000	44.494356
11.430000	44.494356
11.440000	44.494356
11.450000	44.494356
11.460000	44.494356
11.470000	44.494356
11.480000	44.494356
11.490000	44.494356
11.500000	44.124976
11.510000	44.124976
11.520000	44.124976
11.530000	44.124976
11.540000	44.124976
11.550000	44.124976
11.560000	44.124976
11.570000	44.124976
11.580000	44.124976
11.590000	44.124976
11.600000	44.124976
11.610000	44.124976
11.620000	44.124976
11.630000	44.124976
11.640000	44.124976
11.650000	44.124976
11.660000	44.124976
11.670000	44.124976
11.680000	44.124976
11.690000	44.124976
11.700000	44.124976
11.710000	44.124976
11.720000	44.124976
11.730000	44.124976
11.740000	44.124976
11.750000	44.124976
11.760000	44.124976
11.770000	44.124976
11.780000	44.124976
11.790000	44.124976
11.800000	44.124976
11.810000	44.124976
11.820000	44.124976
11.830000	44.124976
11.840000	44.124976
11.850000	44.124976
11.860000	44.124976
11.870000	44.124976
11.880000	44.124976
11.890000	44.124976
11.900000	44.124976
11.910000	44.124976
11.920000	44.124976
11.930000	44.124976
11.940000	44.124976
11.950000	44.124976
11.960000	44.124976
11.970000	44.124976
11.980000	44.124976
11.990000	44.124976
12.000000	43.751218
12.010000	43.751218
12.020000	43.751218
12.030000	43.751218
12.040000	43.751218
12.050000	43.751218
12.060000	43.751218
12.070000	43.751218
12.080000	43.751218
12.090000	43.751218
12.100000	43.751218
12.110000	43.751218
12.120000	43.751218
12.130000	43.751218
12.140000	43.751218
12.150000	43.751218
12.160000	43.751218
12.170000	43.751218
12.180000	43.751218
12.190000	43.751218
12.200000	43.751218
12.210000	43.751218
12.220000	43.751218
12.230000	43.751218
12.240000	43.751218
12.250000	43.751218
12.260000	43.751218
12.270000	43.751218
12.280000	43.751218
12.290000	43.751218
12.300000	43.751218
12.310000	43.751218
12.320000	43.751218
12.330000	43.751218
12.340000	43.751218
12.350000	43.751218
12.360000	43.751218
12.370000	43.751218
12.380000	43.751218
12.390000	43.751218
12.400000	43.751218
12.410000	43.751218
12.420000	43.751218
12.430000	43.751218
12.440000	43.751218
12.450000	43.751218
12.460000	43.751218
12.470000	43.751218
12.480000	43.751218
12.490000	43.751218
12.500000	43.375219
12.510000	43.375219
12.520000	43.375219
12.530000	43.375219
12.540000	43.375219
12.550000	43.375219
12.560000	43.375219
12.570000	43.375219
12.580000	43.375219
12.590000	43.375219
12.600000	43.375219
12.610000	43.375219
12.620000	43.375219
12.630000	43.375219
12.640000	43.375219
12.650000	43.375219
12.660000	43.375219
12.670000	43.375219
12.680000	43.375219
12.690000	43.375219
12.700000	43.375219
12.710000	43.375219
12.720000	43.375219
12.730000	43.375219
12.740000	43.375219
12.750000	43.375219
12.760000	43.375219
12.770000	43.375219
12.780000	43.375219
12.790000	43.375219
12.800000	43.375219
12.810000	43.375219
12.820000	43.375219
12.830000	43.375219
12.840000	43.375219
12.850000	43.375219
12.860000	43.375219
12.870000	43.375219
12.880000	43.375219
12.890000	43.375219
12.900000	43.375219
12.910000	43.375219
12.920000	43.375219
12.930000	43.375219
12.940000	43.375219
12.950000	43.375219
12.960000	43.375219
12.970000	43.375219
12.980000	43.375219
12.990000	43.375219
13.000000	43.001826
13.010000	43.001826
13.020000	43.001826
13.030000	43.001826
13.040000	43.001826
13.050000	43.001826
13.060000	43.001826
13.070000	43.001826
13.080000	43.001826
13.090000	43.001826
13.100000	43.001826
13.110000	43.001826
13.120000	43.001826
13.130000	43.001826
13.140000	43.001826
13.150000	43.001826
13.160000	43.001826
13.170000	43.001826
13.180000	43.001826
13.190000	43.001826
13.200000	43.001826
13.210000	43.001826
13.220000	43.001826
13.230000	43.001826
13.240000	43.001826
13.250000	43.001826
13.260000	43.001826
13.270000	43.001826
13.280000	43.001826
13.290000	43.001826
13.300000	43.001826
13.310000	43.001826
13.320000	43.001826
13.330000	43.001826
13.340000	43.001826
13.350000	43.001826
13.360000	43.001826
13.370000	43.001826
13.380000	43.001826
13.390000	43.001826
13.400000	43.001826
13.410000	43.001826
13.420000	43.001826
13.430000	43.001826
13.440000	43.001826
13.450000	43.001826
13.460000	43.001826
13.470000	43.001826
13.480000	43.001826
13.490000	43.001826
13.500000	42.631218
13.510000	42.631218
13.520000	42.631218
13.530000	42.631218
13.540000	42.631218
13.550000	42.631218
13.560000	42.631218
13.570000	42.631218
13.580000	42.631218
13.590000	42.631218
13.600000	42.631218
13.610000	42.631218
13.620000	42.631218
13.630000	42.631218
13.640000	42.631218
13.650000	42.631218
13.660000	42.631218
13.670000	42.631218
13.680000	42.631218
13.690000	42.631218
13.700000	42.631218
13.710000	42.631218
13.720000	42.631218
13.730000	42.631218
13.740000	42.631218
13.750000	42.631218
13.760000	42.631218
13.770000	42.631218
13.780000	42.631218
13.790000	42.631218
13.800000	42.631218
13.810000	42.631218
13.820000	42.631218
13.830000	42.631218
13.840000	42.631218
13.850000	42.631218
13.860000	42.631218
13.870000	42.631218
13.880000	42.631218
13.890000	42.631218
13.900000	42.631218
13.910000	42.631218
13.920000	42.631218
13.930000	42.631218
13.940000	42.631218
13.950000	42.631218
13.960000	42.631218
13.970000	42.631218
13.980000	42.631218
13.990000	42.631218
14.000000	42.263435
14.010000	42.263435
14.020000	42.263435
14.030000	42.263435
14.040000	42.263435
14.050000	42.263435
14.060000	42.263435
14.070000	42.263435
14.080000	42.263435
14.090000	42.263435
14.100000	42.263435
14.110000	42.263435
14.120000	42.263435
14.130000	42.263435
14.140000	42.263435
14.150000	42.263435
14.160000	42.263435
14.170000	42.263435
14.180000	42.263435
14.190000	42.263435
14.200000	42.263435
14.210000	42.263435
14.220000	42.263435
14.230000	42.263435
14.240000	42.263435
14.250000	42.263435
14.260000	42.263435
14.270000	42.263435
14.280000	42.263435
14.290000	42.263435
14.300000	42.263435
14.310000	42.263435
14.320000	42.263435
14.330000	42.263435
14.340000	42.263435
14.350000	42.263435
14.360000	42.263435
14.370000	42.263435
14.380000	42.263435
14.390000	42.263435
14.400000	42.263435
14.410000	42.263435
14.420000	42.263435
14.430000	42.263435
14.440000	42.263435
14.450000	42.263435
14.460000	42.263435
14.470000	42.263435
14.480000	42.263435
14.490000	42.263435
14.500000	41.901315
14.510000	41.901315
14.520000	41.901315
14.530000	41.901315
14.540000	41.901315
14.550000	41.901315
14.560000	41.901315
14.570000	41.901315
14.580000	41.901315
14.590000	41.901315
14.600000	41.901315
14.610000	41.901315
14.620000	41.901315
14.630000	41.901315
14.640000	41.901315
14.650000	41.901315
14.660000	41.901315
14.670000	41.901315
14.680000	41.901315
14.690000	41.901315
14.700000	41.901315
14.710000	41.901315
14.720000	41.901315
14.730000	41.901315
14.740000	41.901315
14.750000	41.901315
14.760000	41.901315
14.770000	41.901315
14.780000	41.901315
14.790000	41.901315
14.800000	41.901315
14.810000	41.901315
14.820000	41.901315
14.830000	41.901315
14.840000	41.901315
14.850000	41.901315
14.860000	41.901315
14.870000	41.901315
14.880000	41.901315
14.890000	41.901315
14.900000	41.901315
14.910000	41.901315
14.920000	41.901315
14.930000	41.901315
14.940000	41.901315
14.950000	41.901315
14.960000	41.901315
14.970000	41.901315
14.980000	41.901315
14.990000	41.901315
15.000000	41.547413
15.010000	41.547413
15.020000	41.547413
15.030000	41.547413
15.040000	41.547413
15.050000	41.547413
15.060000	41.547413
15.070000	41.547413
15.080000	41.547413
15.090000	41.547413
15.100000	41.547413
15.110000	41.547413
15.120000	41.547413
15.130000	41.547413
15.140000	41.547413
15.150000	41.547413
15.160000	41.547413
15.170000	41.547413
15.180000	41.547413
15.190000	41.547413
15.200000	41.547413
15.210000	41.547413
15.220000	41.547413
15.230000	41.547413
15.240000	41.547413
15.250000	41.547413
15.260000	41.547413
15.270000	41.547413
15.280000	41.547413
15.290000	41.547413
15.300000	41.547413
15.310000	41.547413
15.320000	41.547413
15.330000	41.547413
15.340000	41.547413
15.350000	41.547413
15.360000	41.547413
15.370000	41.547413
15.380000	41.547413
15.390000	41.547413
15.400000	41.547413
15.410000	41.547413
15.420000	41.547413
15.430000	41.547413
15.440000	41.547413
15.450000	41.547413
15.460000	41.547413
15.470000	41.547413
15.480000	41.547413
15.490000	41.547413
15.500000	41.199963
15.510000	41.199963
15.520000	41.199963
15.530000	41.199963
15.540000	41.199963
15.550000	41.199963
15.560000	41.199963
15.570000	41.199963
15.580000	41.199963
15.590000	41.199963
15.600000	41.199963
15.610000	41.199963
15.620000	41.199963
15.630000	41.199963
15.640000	41.199963
15.650000	41.199963
15.660000	41.199963
15.670000	41.199963
15.680000	41.199963
15.690000	41.199963
15.700000	41.199963
15.710000	41.199963
15.720000	41.199963
15.730000	41.199963
15.740000	41.199963
15.750000	41.199963
15.760000	41.199963
15.770000	41.199963
15.780000	41.199963
15.790000	41.199963
15.800000	41.199963
15.810000	41.199963
15.820000	41.199963
15.830000	41.199963
15.840000	41.199963
15.850000	41.199963
15.860000	41.199963
15.870000	41.199963
15.880000	41.199963
15.890000	41.199963
15.900000	41.199963
15.910000	41.199963
15.920000	41.199963
15.930000	41.199963
15.940000	41.199963
15.950000	41.199963
15.960000	41.199963
15.970000	41.199963
15.980000	41.199963
15.990000	41.199963
16.000000	40.860944
16.010000	40.860944
16.020000	40.860944
16.030000	40.860944
16.040000	40.860944
16.050000	40.860944
16.060000	40.860944
16.070000	40.860944
16.080000	40.860944
16.090000	40.860944
16.100000	40.860944
16.110000	40.860944
16.120000	40.860944
16.130000	40.860944
16.140000	40.860944
16.150000	40.860944
16.160000	40.860944
16.170000	40.860944
16.180000	40.860944
16.190000	40.860944
16.200000	40.860944
16.210000	40.860944
16.220000	40.860944
16.230000	40.860944
16.240000	40.860944
16.250000	40.860944
16.260000	40.860944
16.270000	40.860944
16.280000	40.860944
16.290000	40.860944
16.300000	40.860944
16.310000	40.860944
16.320000	40.860944
16.330000	40.860944
16.340000	40.860944
16.350000	40.860944
16.360000	40.860944
16.370000	40.860944
16.380000	40.860944
16.390000	40.860944
16.400000	40.860944
16.410000	40.860944
16.420000	40.860944
16.430000	40.860944
16.440000	40.860944
16.450000	40.860944
16.460000	40.860944
16.470000	40.860944
16.480000	40.860944
16.490000	40.860944
16.500000	40.531519
16.510000	40.531519
16.520000	40.531519
16.530000	40.531519
16.540000	40.531519
16.550000	40.531519
16.560000	40.531519
16.570000	40.531519
16.580000	40.531519
16.590000	40.531519
16.600000	40.531519
16.610000	40.531519
16.620000	40.531519
16.630000	40.531519
16.640000	40.531519
16.650000	40.531519
16.660000	40.531519
16.670000	40.531519
16.680000	40.531519
16.690000	40.531519
16.700000	40.531519
16.710000	40.531519
16.720000	40.531519
16.730000	40.531519
16.740000	40.531519
16.750000	40.531519
16.760000	40.531519
16.770000	40.531519
16.780000	40.531519
16.790000	40.531519
16.800000	40.531519
16.810000	40.531519
16.820000	40.531519
16.830000	40.531519
16.840000	40.531519
16.850000	40.531519
16.860000	40.531519
16.870000	40.531519
16.880000	40.531519
16.890000	40.531519
16.900000	40.531519
16.910000	40.531519
16.920000	40.531519
16.930000	40.531519
16.940000	40.531519
16.950000	40.531519
16.960000	40.531519
16.970000	40.531519
16.980000	40.531519
16.990000	40.531519
17.000000	40.202391
17.010000	40.202391
17.020000	40.202391
17.030000	40.202391
17.040000	40.202391
17.050000	40.202391
17.060000	40.202391
17.070000	40.202391
17.080000	40.202391
17.090000	40.202391
17.100000	40.202391
17.110000	40.202391
17.120000	40.202391
17.130000	40.202391
17.140000	40.202391
17.150000	40.202391
17.160000	40.202391
17.170000	40.202391
17.180000	40.202391
17.190000	40.202391
17.200000	40.202391
17.210000	40.202391
17.220000	40.202391
17.230000	40.202391
17.240000	40.202391
17.250000	40.202391
17.260000	40.202391
17.270000	40.202391
17.280000	40.202391
17.290000	40.202391
17.300000	40.202391
17.310000	40.202391
17.320000	40.202391
17.330000	40.202391
17.340000	40.202391
17.350000	40.202391
17.360000	40.202391
17.370000	40.202391
17.380000	40.202391
17.390000	40.202391
17.400000	40.202391
17.410000	40.202391
17.420000	40.202391
17.430000	40.202391
17.440000	40.202391
17.450000	40.202391
17.460000	40.202391
17.470000	40.202391
17.480000	40.202391
17.490000	40.202391
17.500000	39.885010
17.510000	39.885010
17.520000	39.885010
17.530000	39.885010
17.540000	39.885010
17.550000	39.885010
17.560000	39.885010
17.570000	39.885010
17.580000	39.885010
17.590000	39.885010
17.600000	39.885010
17.610000	39.885010
17.620000	39.885010
17.630000	39.885010
17.640000	39.885010
17.650000	39.885010
17.660000	39.885010
17.670000	39.885010
17.680000	39.885010
17.690000	39.885010
17.700000	39.885010
17.710000	39.885010
17.720000	39.885010
17.730000	39.885010
17.740000	39.885010
17.750000	39.885010
17.760000	39.885010
17.770000	39.885010
17.780000	39.885010
17.790000	39.885010
17.800000	39.885010
17.810000	39.885010
17.820000	39.885010
17.830000	39.885010
17.840000	39.885010
17.850000	39.885010
17.860000	39.885010
17.870000	39.885010
17.880000	39.885010
17.890000	39.885010
17.900000	39.885010
17.910000	39.885010
17.920000	39.885010
17.930000	39.885010
17.940000	39.885010
17.950000	39.885010
17.960000	39.885010
17.970000	39.885010
17.980000	39.885010
17.990000	39.885010
