LabVIEW Measurement	
Writer_Version	2
Reader_Version	2
Separator	Tab
Decimal_Separator	.
Multi_Headings	No
X_Columns	One
Time_Pref	Absolute
Operator	biomech-dyno
Date	2023/04/27
Time	17:41:55.9338632999999876419
***End_of_Header***	
	
Channels	1	
Samples	10	
Date	2023/04/27	
Time	19:23:57.3520810999997710911	
X_Dimension	Time	
X0	0.0000000000000000E+0	
Delta_X	0.010000	
***End_of_Header***		
X_Value	Untitled	Comment
0.000000	24.822581
0.010000	24.822581
0.020000	24.822581
0.030000	24.822581
0.040000	24.822581
0.050000	24.822581
0.060000	24.822581
0.070000	24.822581
0.080000	24.822581
0.090000	24.822581
0.100000	24.822581
0.110000	24.822581
0.120000	24.822581
0.130000	24.822581
0.140000	24.822581
0.150000	24.822581
0.160000	24.822581
0.170000	24.822581
0.180000	24.822581
0.190000	24.822581
0.200000	24.822581
0.210000	24.822581
0.220000	24.822581
0.230000	24.822581
0.240000	24.822581
0.250000	24.822581
0.260000	24.822581
0.270000	24.822581
0.280000	24.822581
0.290000	24.822581
0.300000	24.822581
0.310000	24.822581
0.320000	24.822581
0.330000	24.822581
0.340000	24.822581
0.350000	24.822581
0.360000	24.822581
0.370000	24.822581
0.380000	24.822581
0.390000	24.822581
0.400000	24.822581
0.410000	24.822581
0.420000	24.822581
0.430000	24.822581
0.440000	24.822581
0.450000	24.822581
0.460000	24.822581
0.470000	24.822581
0.480000	24.822581
0.490000	24.822581
0.500000	24.827853
0.510000	24.827853
0.520000	24.827853
0.530000	24.827853
0.540000	24.827853
0.550000	24.827853
0.560000	24.827853
0.570000	24.827853
0.580000	24.827853
0.590000	24.827853
0.600000	24.827853
0.610000	24.827853
0.620000	24.827853
0.630000	24.827853
0.640000	24.827853
0.650000	24.827853
0.660000	24.827853
0.670000	24.827853
0.680000	24.827853
0.690000	24.827853
0.700000	24.827853
0.710000	24.827853
0.720000	24.827853
0.730000	24.827853
0.740000	24.827853
0.750000	24.827853
0.760000	24.827853
0.770000	24.827853
0.780000	24.827853
0.790000	24.827853
0.800000	24.827853
0.810000	24.827853
0.820000	24.827853
0.830000	24.827853
0.840000	24.827853
0.850000	24.827853
0.860000	24.827853
0.870000	24.827853
0.880000	24.827853
0.890000	24.827853
0.900000	24.827853
0.910000	24.827853
0.920000	24.827853
0.930000	24.827853
0.940000	24.827853
0.950000	24.827853
0.960000	24.827853
0.970000	24.827853
0.980000	24.827853
0.990000	24.827853
1.000000	24.839591
1.010000	24.839591
1.020000	24.839591
1.030000	24.839591
1.040000	24.839591
1.050000	24.839591
1.060000	24.839591
1.070000	24.839591
1.080000	24.839591
1.090000	24.839591
1.100000	24.839591
1.110000	24.839591
1.120000	24.839591
1.130000	24.839591
1.140000	24.839591
1.150000	24.839591
1.160000	24.839591
1.170000	24.839591
1.180000	24.839591
1.190000	24.839591
1.200000	24.839591
1.210000	24.839591
1.220000	24.839591
1.230000	24.839591
1.240000	24.839591
1.250000	24.839591
1.260000	24.839591
1.270000	24.839591
1.280000	24.839591
1.290000	24.839591
1.300000	24.839591
1.310000	24.839591
1.320000	24.839591
1.330000	24.839591
1.340000	24.839591
1.350000	24.839591
1.360000	24.839591
1.370000	24.839591
1.380000	24.839591
1.390000	24.839591
1.400000	24.839591
1.410000	24.839591
1.420000	24.839591
1.430000	24.839591
1.440000	24.839591
1.450000	24.839591
1.460000	24.839591
1.470000	24.839591
1.480000	24.839591
1.490000	24.839591
1.500000	24.861268
1.510000	24.861268
1.520000	24.861268
1.530000	24.861268
1.540000	24.861268
1.550000	24.861268
1.560000	24.861268
1.570000	24.861268
1.580000	24.861268
1.590000	24.861268
1.600000	24.861268
1.610000	24.861268
1.620000	24.861268
1.630000	24.861268
1.640000	24.861268
1.650000	24.861268
1.660000	24.861268
1.670000	24.861268
1.680000	24.861268
1.690000	24.861268
1.700000	24.861268
1.710000	24.861268
1.720000	24.861268
1.730000	24.861268
1.740000	24.861268
1.750000	24.861268
1.760000	24.861268
1.770000	24.861268
1.780000	24.861268
1.790000	24.861268
1.800000	24.861268
1.810000	24.861268
1.820000	24.861268
1.830000	24.861268
1.840000	24.861268
1.850000	24.861268
1.860000	24.861268
1.870000	24.861268
1.880000	24.861268
1.890000	24.861268
1.900000	24.861268
1.910000	24.861268
1.920000	24.861268
1.930000	24.861268
1.940000	24.861268
1.950000	24.861268
1.960000	24.861268
1.970000	24.861268
1.980000	24.861268
1.990000	24.861268
2.000000	24.892800
2.010000	24.892800
2.020000	24.892800
2.030000	24.892800
2.040000	24.892800
2.050000	24.892800
2.060000	24.892800
2.070000	24.892800
2.080000	24.892800
2.090000	24.892800
2.100000	24.892800
2.110000	24.892800
2.120000	24.892800
2.130000	24.892800
2.140000	24.892800
2.150000	24.892800
2.160000	24.892800
2.170000	24.892800
2.180000	24.892800
2.190000	24.892800
2.200000	24.892800
2.210000	24.892800
2.220000	24.892800
2.230000	24.892800
2.240000	24.892800
2.250000	24.892800
2.260000	24.892800
2.270000	24.892800
2.280000	24.892800
2.290000	24.892800
2.300000	24.892800
2.310000	24.892800
2.320000	24.892800
2.330000	24.892800
2.340000	24.892800
2.350000	24.892800
2.360000	24.892800
2.370000	24.892800
2.380000	24.892800
2.390000	24.892800
2.400000	24.892800
2.410000	24.892800
2.420000	24.892800
2.430000	24.892800
2.440000	24.892800
2.450000	24.892800
2.460000	24.892800
2.470000	24.892800
2.480000	24.892800
2.490000	24.892800
2.500000	24.934299
2.510000	24.934299
2.520000	24.934299
2.530000	24.934299
2.540000	24.934299
2.550000	24.934299
2.560000	24.934299
2.570000	24.934299
2.580000	24.934299
2.590000	24.934299
2.600000	24.934299
2.610000	24.934299
2.620000	24.934299
2.630000	24.934299
2.640000	24.934299
2.650000	24.934299
2.660000	24.934299
2.670000	24.934299
2.680000	24.934299
2.690000	24.934299
2.700000	24.934299
2.710000	24.934299
2.720000	24.934299
2.730000	24.934299
2.740000	24.934299
2.750000	24.934299
2.760000	24.934299
2.770000	24.934299
2.780000	24.934299
2.790000	24.934299
2.800000	24.934299
2.810000	24.934299
2.820000	24.934299
2.830000	24.934299
2.840000	24.934299
2.850000	24.934299
2.860000	24.934299
2.870000	24.934299
2.880000	24.934299
2.890000	24.934299
2.900000	24.934299
2.910000	24.934299
2.920000	24.934299
2.930000	24.934299
2.940000	24.934299
2.950000	24.934299
2.960000	24.934299
2.970000	24.934299
2.980000	24.934299
2.990000	24.934299
3.000000	24.978428
3.010000	24.978428
3.020000	24.978428
3.030000	24.978428
3.040000	24.978428
3.050000	24.978428
3.060000	24.978428
3.070000	24.978428
3.080000	24.978428
3.090000	24.978428
3.100000	24.978428
3.110000	24.978428
3.120000	24.978428
3.130000	24.978428
3.140000	24.978428
3.150000	24.978428
3.160000	24.978428
3.170000	24.978428
3.180000	24.978428
3.190000	24.978428
3.200000	24.978428
3.210000	24.978428
3.220000	24.978428
3.230000	24.978428
3.240000	24.978428
3.250000	24.978428
3.260000	24.978428
3.270000	24.978428
3.280000	24.978428
3.290000	24.978428
3.300000	24.978428
3.310000	24.978428
3.320000	24.978428
3.330000	24.978428
3.340000	24.978428
3.350000	24.978428
3.360000	24.978428
3.370000	24.978428
3.380000	24.978428
3.390000	24.978428
3.400000	24.978428
3.410000	24.978428
3.420000	24.978428
3.430000	24.978428
3.440000	24.978428
3.450000	24.978428
3.460000	24.978428
3.470000	24.978428
3.480000	24.978428
3.490000	24.978428
3.500000	25.014360
3.510000	25.014360
3.520000	25.014360
3.530000	25.014360
3.540000	25.014360
3.550000	25.014360
3.560000	25.014360
3.570000	25.014360
3.580000	25.014360
3.590000	25.014360
3.600000	25.014360
3.610000	25.014360
3.620000	25.014360
3.630000	25.014360
3.640000	25.014360
3.650000	25.014360
3.660000	25.014360
3.670000	25.014360
3.680000	25.014360
3.690000	25.014360
3.700000	25.014360
3.710000	25.014360
3.720000	25.014360
3.730000	25.014360
3.740000	25.014360
3.750000	25.014360
3.760000	25.014360
3.770000	25.014360
3.780000	25.014360
3.790000	25.014360
3.800000	25.014360
3.810000	25.014360
3.820000	25.014360
3.830000	25.014360
3.840000	25.014360
3.850000	25.014360
3.860000	25.014360
3.870000	25.014360
3.880000	25.014360
3.890000	25.014360
3.900000	25.014360
3.910000	25.014360
3.920000	25.014360
3.930000	25.014360
3.940000	25.014360
3.950000	25.014360
3.960000	25.014360
3.970000	25.014360
3.980000	25.014360
3.990000	25.014360
4.000000	25.038880
4.010000	25.038880
4.020000	25.038880
4.030000	25.038880
4.040000	25.038880
4.050000	25.038880
4.060000	25.038880
4.070000	25.038880
4.080000	25.038880
4.090000	25.038880
4.100000	25.038880
4.110000	25.038880
4.120000	25.038880
4.130000	25.038880
4.140000	25.038880
4.150000	25.038880
4.160000	25.038880
4.170000	25.038880
4.180000	25.038880
4.190000	25.038880
4.200000	25.038880
4.210000	25.038880
4.220000	25.038880
4.230000	25.038880
4.240000	25.038880
4.250000	25.038880
4.260000	25.038880
4.270000	25.038880
4.280000	25.038880
4.290000	25.038880
4.300000	25.038880
4.310000	25.038880
4.320000	25.038880
4.330000	25.038880
4.340000	25.038880
4.350000	25.038880
4.360000	25.038880
4.370000	25.038880
4.380000	25.038880
4.390000	25.038880
4.400000	25.038880
4.410000	25.038880
4.420000	25.038880
4.430000	25.038880
4.440000	25.038880
4.450000	25.038880
4.460000	25.038880
4.470000	25.038880
4.480000	25.038880
4.490000	25.038880
4.500000	25.056865
4.510000	25.056865
4.520000	25.056865
4.530000	25.056865
4.540000	25.056865
4.550000	25.056865
4.560000	25.056865
4.570000	25.056865
4.580000	25.056865
4.590000	25.056865
4.600000	25.056865
4.610000	25.056865
4.620000	25.056865
4.630000	25.056865
4.640000	25.056865
4.650000	25.056865
4.660000	25.056865
4.670000	25.056865
4.680000	25.056865
4.690000	25.056865
4.700000	25.056865
4.710000	25.056865
4.720000	25.056865
4.730000	25.056865
4.740000	25.056865
4.750000	25.056865
4.760000	25.056865
4.770000	25.056865
4.780000	25.056865
4.790000	25.056865
4.800000	25.056865
4.810000	25.056865
4.820000	25.056865
4.830000	25.056865
4.840000	25.056865
4.850000	25.056865
4.860000	25.056865
4.870000	25.056865
4.880000	25.056865
4.890000	25.056865
4.900000	25.056865
4.910000	25.056865
4.920000	25.056865
4.930000	25.056865
4.940000	25.056865
4.950000	25.056865
4.960000	25.056865
4.970000	25.056865
4.980000	25.056865
4.990000	25.056865
5.000000	25.070262
5.010000	25.070262
5.020000	25.070262
5.030000	25.070262
5.040000	25.070262
5.050000	25.070262
5.060000	25.070262
5.070000	25.070262
5.080000	25.070262
5.090000	25.070262
5.100000	25.070262
5.110000	25.070262
5.120000	25.070262
5.130000	25.070262
5.140000	25.070262
5.150000	25.070262
5.160000	25.070262
5.170000	25.070262
5.180000	25.070262
5.190000	25.070262
5.200000	25.070262
5.210000	25.070262
5.220000	25.070262
5.230000	25.070262
5.240000	25.070262
5.250000	25.070262
5.260000	25.070262
5.270000	25.070262
5.280000	25.070262
5.290000	25.070262
5.300000	25.070262
5.310000	25.070262
5.320000	25.070262
5.330000	25.070262
5.340000	25.070262
5.350000	25.070262
5.360000	25.070262
5.370000	25.070262
5.380000	25.070262
5.390000	25.070262
5.400000	25.070262
5.410000	25.070262
5.420000	25.070262
5.430000	25.070262
5.440000	25.070262
5.450000	25.070262
5.460000	25.070262
5.470000	25.070262
5.480000	25.070262
5.490000	25.070262
5.500000	25.081777
5.510000	25.081777
5.520000	25.081777
5.530000	25.081777
5.540000	25.081777
5.550000	25.081777
5.560000	25.081777
5.570000	25.081777
5.580000	25.081777
5.590000	25.081777
5.600000	25.081777
5.610000	25.081777
5.620000	25.081777
5.630000	25.081777
5.640000	25.081777
5.650000	25.081777
5.660000	25.081777
5.670000	25.081777
5.680000	25.081777
5.690000	25.081777
5.700000	25.081777
5.710000	25.081777
5.720000	25.081777
5.730000	25.081777
5.740000	25.081777
5.750000	25.081777
5.760000	25.081777
5.770000	25.081777
5.780000	25.081777
5.790000	25.081777
5.800000	25.081777
5.810000	25.081777
5.820000	25.081777
5.830000	25.081777
5.840000	25.081777
5.850000	25.081777
5.860000	25.081777
5.870000	25.081777
5.880000	25.081777
5.890000	25.081777
5.900000	25.081777
5.910000	25.081777
5.920000	25.081777
5.930000	25.081777
5.940000	25.081777
5.950000	25.081777
5.960000	25.081777
5.970000	25.081777
5.980000	25.081777
5.990000	25.081777
6.000000	25.089811
6.010000	25.089811
6.020000	25.089811
6.030000	25.089811
6.040000	25.089811
6.050000	25.089811
6.060000	25.089811
6.070000	25.089811
6.080000	25.089811
6.090000	25.089811
6.100000	25.089811
6.110000	25.089811
6.120000	25.089811
6.130000	25.089811
6.140000	25.089811
6.150000	25.089811
6.160000	25.089811
6.170000	25.089811
6.180000	25.089811
6.190000	25.089811
6.200000	25.089811
6.210000	25.089811
6.220000	25.089811
6.230000	25.089811
6.240000	25.089811
6.250000	25.089811
6.260000	25.089811
6.270000	25.089811
6.280000	25.089811
6.290000	25.089811
6.300000	25.089811
6.310000	25.089811
6.320000	25.089811
6.330000	25.089811
6.340000	25.089811
6.350000	25.089811
6.360000	25.089811
6.370000	25.089811
6.380000	25.089811
6.390000	25.089811
6.400000	25.089811
6.410000	25.089811
6.420000	25.089811
6.430000	25.089811
6.440000	25.089811
6.450000	25.089811
6.460000	25.089811
6.470000	25.089811
6.480000	25.089811
6.490000	25.089811
6.500000	25.094004
6.510000	25.094004
6.520000	25.094004
6.530000	25.094004
6.540000	25.094004
6.550000	25.094004
6.560000	25.094004
6.570000	25.094004
6.580000	25.094004
6.590000	25.094004
6.600000	25.094004
6.610000	25.094004
6.620000	25.094004
6.630000	25.094004
6.640000	25.094004
6.650000	25.094004
6.660000	25.094004
6.670000	25.094004
6.680000	25.094004
6.690000	25.094004
6.700000	25.094004
6.710000	25.094004
6.720000	25.094004
6.730000	25.094004
6.740000	25.094004
6.750000	25.094004
6.760000	25.094004
6.770000	25.094004
6.780000	25.094004
6.790000	25.094004
6.800000	25.094004
6.810000	25.094004
6.820000	25.094004
6.830000	25.094004
6.840000	25.094004
6.850000	25.094004
6.860000	25.094004
6.870000	25.094004
6.880000	25.094004
6.890000	25.094004
6.900000	25.094004
6.910000	25.094004
6.920000	25.094004
6.930000	25.094004
6.940000	25.094004
6.950000	25.094004
6.960000	25.094004
6.970000	25.094004
6.980000	25.094004
6.990000	25.094004
7.000000	25.095967
7.010000	25.095967
7.020000	25.095967
7.030000	25.095967
7.040000	25.095967
7.050000	25.095967
7.060000	25.095967
7.070000	25.095967
7.080000	25.095967
7.090000	25.095967
7.100000	25.095967
7.110000	25.095967
7.120000	25.095967
7.130000	25.095967
7.140000	25.095967
7.150000	25.095967
7.160000	25.095967
7.170000	25.095967
7.180000	25.095967
7.190000	25.095967
7.200000	25.095967
7.210000	25.095967
7.220000	25.095967
7.230000	25.095967
7.240000	25.095967
7.250000	25.095967
7.260000	25.095967
7.270000	25.095967
7.280000	25.095967
7.290000	25.095967
7.300000	25.095967
7.310000	25.095967
7.320000	25.095967
7.330000	25.095967
7.340000	25.095967
7.350000	25.095967
7.360000	25.095967
7.370000	25.095967
7.380000	25.095967
7.390000	25.095967
7.400000	25.095967
7.410000	25.095967
7.420000	25.095967
7.430000	25.095967
7.440000	25.095967
7.450000	25.095967
7.460000	25.095967
7.470000	25.095967
7.480000	25.095967
7.490000	25.095967
7.500000	25.096966
7.510000	25.096966
7.520000	25.096966
7.530000	25.096966
7.540000	25.096966
7.550000	25.096966
7.560000	25.096966
7.570000	25.096966
7.580000	25.096966
7.590000	25.096966
7.600000	25.096966
7.610000	25.096966
7.620000	25.096966
7.630000	25.096966
7.640000	25.096966
7.650000	25.096966
7.660000	25.096966
7.670000	25.096966
7.680000	25.096966
7.690000	25.096966
7.700000	25.096966
7.710000	25.096966
7.720000	25.096966
7.730000	25.096966
7.740000	25.096966
7.750000	25.096966
7.760000	25.096966
7.770000	25.096966
7.780000	25.096966
7.790000	25.096966
7.800000	25.096966
7.810000	25.096966
7.820000	25.096966
7.830000	25.096966
7.840000	25.096966
7.850000	25.096966
7.860000	25.096966
7.870000	25.096966
7.880000	25.096966
7.890000	25.096966
7.900000	25.096966
7.910000	25.096966
7.920000	25.096966
7.930000	25.096966
7.940000	25.096966
7.950000	25.096966
7.960000	25.096966
7.970000	25.096966
7.980000	25.096966
7.990000	25.096966
8.000000	25.097939
8.010000	25.097939
8.020000	25.097939
8.030000	25.097939
8.040000	25.097939
8.050000	25.097939
8.060000	25.097939
8.070000	25.097939
8.080000	25.097939
8.090000	25.097939
8.100000	25.097939
8.110000	25.097939
8.120000	25.097939
8.130000	25.097939
8.140000	25.097939
8.150000	25.097939
8.160000	25.097939
8.170000	25.097939
8.180000	25.097939
8.190000	25.097939
8.200000	25.097939
8.210000	25.097939
8.220000	25.097939
8.230000	25.097939
8.240000	25.097939
8.250000	25.097939
8.260000	25.097939
8.270000	25.097939
8.280000	25.097939
8.290000	25.097939
8.300000	25.097939
8.310000	25.097939
8.320000	25.097939
8.330000	25.097939
8.340000	25.097939
8.350000	25.097939
8.360000	25.097939
8.370000	25.097939
8.380000	25.097939
8.390000	25.097939
8.400000	25.097939
8.410000	25.097939
8.420000	25.097939
8.430000	25.097939
8.440000	25.097939
8.450000	25.097939
8.460000	25.097939
8.470000	25.097939
8.480000	25.097939
8.490000	25.097939
8.500000	25.097749
8.510000	25.097749
8.520000	25.097749
8.530000	25.097749
8.540000	25.097749
8.550000	25.097749
8.560000	25.097749
8.570000	25.097749
8.580000	25.097749
8.590000	25.097749
8.600000	25.097749
8.610000	25.097749
8.620000	25.097749
8.630000	25.097749
8.640000	25.097749
8.650000	25.097749
8.660000	25.097749
8.670000	25.097749
8.680000	25.097749
8.690000	25.097749
8.700000	25.097749
8.710000	25.097749
8.720000	25.097749
8.730000	25.097749
8.740000	25.097749
8.750000	25.097749
8.760000	25.097749
8.770000	25.097749
8.780000	25.097749
8.790000	25.097749
8.800000	25.097749
8.810000	25.097749
8.820000	25.097749
8.830000	25.097749
8.840000	25.097749
8.850000	25.097749
8.860000	25.097749
8.870000	25.097749
8.880000	25.097749
8.890000	25.097749
8.900000	25.097749
8.910000	25.097749
8.920000	25.097749
8.930000	25.097749
8.940000	25.097749
8.950000	25.097749
8.960000	25.097749
8.970000	25.097749
8.980000	25.097749
8.990000	25.097749
9.000000	25.096570
9.010000	25.096570
9.020000	25.096570
9.030000	25.096570
9.040000	25.096570
9.050000	25.096570
9.060000	25.096570
9.070000	25.096570
9.080000	25.096570
9.090000	25.096570
9.100000	25.096570
9.110000	25.096570
9.120000	25.096570
9.130000	25.096570
9.140000	25.096570
9.150000	25.096570
9.160000	25.096570
9.170000	25.096570
9.180000	25.096570
9.190000	25.096570
9.200000	25.096570
9.210000	25.096570
9.220000	25.096570
9.230000	25.096570
9.240000	25.096570
9.250000	25.096570
9.260000	25.096570
9.270000	25.096570
9.280000	25.096570
9.290000	25.096570
9.300000	25.096570
9.310000	25.096570
9.320000	25.096570
9.330000	25.096570
9.340000	25.096570
9.350000	25.096570
9.360000	25.096570
9.370000	25.096570
9.380000	25.096570
9.390000	25.096570
9.400000	25.096570
9.410000	25.096570
9.420000	25.096570
9.430000	25.096570
9.440000	25.096570
9.450000	25.096570
9.460000	25.096570
9.470000	25.096570
9.480000	25.096570
9.490000	25.096570
9.500000	25.093359
9.510000	25.093359
9.520000	25.093359
9.530000	25.093359
9.540000	25.093359
9.550000	25.093359
9.560000	25.093359
9.570000	25.093359
9.580000	25.093359
9.590000	25.093359
9.600000	25.093359
9.610000	25.093359
9.620000	25.093359
9.630000	25.093359
9.640000	25.093359
9.650000	25.093359
9.660000	25.093359
9.670000	25.093359
9.680000	25.093359
9.690000	25.093359
9.700000	25.093359
9.710000	25.093359
9.720000	25.093359
9.730000	25.093359
9.740000	25.093359
9.750000	25.093359
9.760000	25.093359
9.770000	25.093359
9.780000	25.093359
9.790000	25.093359
9.800000	25.093359
9.810000	25.093359
9.820000	25.093359
9.830000	25.093359
9.840000	25.093359
9.850000	25.093359
9.860000	25.093359
9.870000	25.093359
9.880000	25.093359
9.890000	25.093359
9.900000	25.093359
9.910000	25.093359
9.920000	25.093359
9.930000	25.093359
9.940000	25.093359
9.950000	25.093359
9.960000	25.093359
9.970000	25.093359
9.980000	25.093359
9.990000	25.093359
10.000000	25.089372
10.010000	25.089372
10.020000	25.089372
10.030000	25.089372
10.040000	25.089372
10.050000	25.089372
10.060000	25.089372
10.070000	25.089372
10.080000	25.089372
10.090000	25.089372
10.100000	25.089372
10.110000	25.089372
10.120000	25.089372
10.130000	25.089372
10.140000	25.089372
10.150000	25.089372
10.160000	25.089372
10.170000	25.089372
10.180000	25.089372
10.190000	25.089372
10.200000	25.089372
10.210000	25.089372
10.220000	25.089372
10.230000	25.089372
10.240000	25.089372
10.250000	25.089372
10.260000	25.089372
10.270000	25.089372
10.280000	25.089372
10.290000	25.089372
10.300000	25.089372
10.310000	25.089372
10.320000	25.089372
10.330000	25.089372
10.340000	25.089372
10.350000	25.089372
10.360000	25.089372
10.370000	25.089372
10.380000	25.089372
10.390000	25.089372
10.400000	25.089372
10.410000	25.089372
10.420000	25.089372
10.430000	25.089372
10.440000	25.089372
10.450000	25.089372
10.460000	25.089372
10.470000	25.089372
10.480000	25.089372
10.490000	25.089372
10.500000	25.086117
10.510000	25.086117
10.520000	25.086117
10.530000	25.086117
10.540000	25.086117
10.550000	25.086117
10.560000	25.086117
10.570000	25.086117
10.580000	25.086117
10.590000	25.086117
10.600000	25.086117
10.610000	25.086117
10.620000	25.086117
10.630000	25.086117
10.640000	25.086117
10.650000	25.086117
10.660000	25.086117
10.670000	25.086117
10.680000	25.086117
10.690000	25.086117
10.700000	25.086117
10.710000	25.086117
10.720000	25.086117
10.730000	25.086117
10.740000	25.086117
10.750000	25.086117
10.760000	25.086117
10.770000	25.086117
10.780000	25.086117
10.790000	25.086117
10.800000	25.086117
10.810000	25.086117
10.820000	25.086117
10.830000	25.086117
10.840000	25.086117
10.850000	25.086117
10.860000	25.086117
10.870000	25.086117
10.880000	25.086117
10.890000	25.086117
10.900000	25.086117
10.910000	25.086117
10.920000	25.086117
10.930000	25.086117
10.940000	25.086117
10.950000	25.086117
10.960000	25.086117
10.970000	25.086117
10.980000	25.086117
10.990000	25.086117
11.000000	25.082819
11.010000	25.082819
11.020000	25.082819
11.030000	25.082819
11.040000	25.082819
11.050000	25.082819
11.060000	25.082819
11.070000	25.082819
11.080000	25.082819
11.090000	25.082819
11.100000	25.082819
11.110000	25.082819
11.120000	25.082819
11.130000	25.082819
11.140000	25.082819
11.150000	25.082819
11.160000	25.082819
11.170000	25.082819
11.180000	25.082819
11.190000	25.082819
11.200000	25.082819
11.210000	25.082819
11.220000	25.082819
11.230000	25.082819
11.240000	25.082819
11.250000	25.082819
11.260000	25.082819
11.270000	25.082819
11.280000	25.082819
11.290000	25.082819
11.300000	25.082819
11.310000	25.082819
11.320000	25.082819
11.330000	25.082819
11.340000	25.082819
11.350000	25.082819
11.360000	25.082819
11.370000	25.082819
11.380000	25.082819
11.390000	25.082819
11.400000	25.082819
11.410000	25.082819
11.420000	25.082819
11.430000	25.082819
11.440000	25.082819
11.450000	25.082819
11.460000	25.082819
11.470000	25.082819
11.480000	25.082819
11.490000	25.082819
11.500000	25.079047
11.510000	25.079047
11.520000	25.079047
11.530000	25.079047
11.540000	25.079047
11.550000	25.079047
11.560000	25.079047
11.570000	25.079047
11.580000	25.079047
11.590000	25.079047
11.600000	25.079047
11.610000	25.079047
11.620000	25.079047
11.630000	25.079047
11.640000	25.079047
11.650000	25.079047
11.660000	25.079047
11.670000	25.079047
11.680000	25.079047
11.690000	25.079047
11.700000	25.079047
11.710000	25.079047
11.720000	25.079047
11.730000	25.079047
11.740000	25.079047
11.750000	25.079047
11.760000	25.079047
11.770000	25.079047
11.780000	25.079047
11.790000	25.079047
11.800000	25.079047
11.810000	25.079047
11.820000	25.079047
11.830000	25.079047
11.840000	25.079047
11.850000	25.079047
11.860000	25.079047
11.870000	25.079047
11.880000	25.079047
11.890000	25.079047
11.900000	25.079047
11.910000	25.079047
11.920000	25.079047
11.930000	25.079047
11.940000	25.079047
11.950000	25.079047
11.960000	25.079047
11.970000	25.079047
11.980000	25.079047
11.990000	25.079047
12.000000	25.075955
12.010000	25.075955
12.020000	25.075955
12.030000	25.075955
12.040000	25.075955
12.050000	25.075955
12.060000	25.075955
12.070000	25.075955
12.080000	25.075955
12.090000	25.075955
12.100000	25.075955
12.110000	25.075955
12.120000	25.075955
12.130000	25.075955
12.140000	25.075955
12.150000	25.075955
12.160000	25.075955
12.170000	25.075955
12.180000	25.075955
12.190000	25.075955
12.200000	25.075955
12.210000	25.075955
12.220000	25.075955
12.230000	25.075955
12.240000	25.075955
12.250000	25.075955
12.260000	25.075955
12.270000	25.075955
12.280000	25.075955
12.290000	25.075955
12.300000	25.075955
12.310000	25.075955
12.320000	25.075955
12.330000	25.075955
12.340000	25.075955
12.350000	25.075955
12.360000	25.075955
12.370000	25.075955
12.380000	25.075955
12.390000	25.075955
12.400000	25.075955
12.410000	25.075955
12.420000	25.075955
12.430000	25.075955
12.440000	25.075955
12.450000	25.075955
12.460000	25.075955
12.470000	25.075955
12.480000	25.075955
12.490000	25.075955
12.500000	25.073044
12.510000	25.073044
12.520000	25.073044
12.530000	25.073044
12.540000	25.073044
12.550000	25.073044
12.560000	25.073044
12.570000	25.073044
12.580000	25.073044
12.590000	25.073044
12.600000	25.073044
12.610000	25.073044
12.620000	25.073044
12.630000	25.073044
12.640000	25.073044
12.650000	25.073044
12.660000	25.073044
12.670000	25.073044
12.680000	25.073044
12.690000	25.073044
12.700000	25.073044
12.710000	25.073044
12.720000	25.073044
12.730000	25.073044
12.740000	25.073044
12.750000	25.073044
12.760000	25.073044
12.770000	25.073044
12.780000	25.073044
12.790000	25.073044
12.800000	25.073044
12.810000	25.073044
12.820000	25.073044
12.830000	25.073044
12.840000	25.073044
12.850000	25.073044
12.860000	25.073044
12.870000	25.073044
12.880000	25.073044
12.890000	25.073044
12.900000	25.073044
12.910000	25.073044
12.920000	25.073044
12.930000	25.073044
12.940000	25.073044
12.950000	25.073044
12.960000	25.073044
12.970000	25.073044
12.980000	25.073044
12.990000	25.073044
13.000000	25.070296
13.010000	25.070296
13.020000	25.070296
13.030000	25.070296
13.040000	25.070296
13.050000	25.070296
13.060000	25.070296
13.070000	25.070296
13.080000	25.070296
13.090000	25.070296
13.100000	25.070296
13.110000	25.070296
13.120000	25.070296
13.130000	25.070296
13.140000	25.070296
13.150000	25.070296
13.160000	25.070296
13.170000	25.070296
13.180000	25.070296
13.190000	25.070296
13.200000	25.070296
13.210000	25.070296
13.220000	25.070296
13.230000	25.070296
13.240000	25.070296
13.250000	25.070296
13.260000	25.070296
13.270000	25.070296
13.280000	25.070296
13.290000	25.070296
13.300000	25.070296
13.310000	25.070296
13.320000	25.070296
13.330000	25.070296
13.340000	25.070296
13.350000	25.070296
13.360000	25.070296
13.370000	25.070296
13.380000	25.070296
13.390000	25.070296
13.400000	25.070296
13.410000	25.070296
13.420000	25.070296
13.430000	25.070296
13.440000	25.070296
13.450000	25.070296
13.460000	25.070296
13.470000	25.070296
13.480000	25.070296
13.490000	25.070296
13.500000	25.066618
13.510000	25.066618
13.520000	25.066618
13.530000	25.066618
13.540000	25.066618
13.550000	25.066618
13.560000	25.066618
13.570000	25.066618
13.580000	25.066618
13.590000	25.066618
13.600000	25.066618
13.610000	25.066618
13.620000	25.066618
13.630000	25.066618
13.640000	25.066618
13.650000	25.066618
13.660000	25.066618
13.670000	25.066618
13.680000	25.066618
13.690000	25.066618
13.700000	25.066618
13.710000	25.066618
13.720000	25.066618
13.730000	25.066618
13.740000	25.066618
13.750000	25.066618
13.760000	25.066618
13.770000	25.066618
13.780000	25.066618
13.790000	25.066618
13.800000	25.066618
13.810000	25.066618
13.820000	25.066618
13.830000	25.066618
13.840000	25.066618
13.850000	25.066618
13.860000	25.066618
13.870000	25.066618
13.880000	25.066618
13.890000	25.066618
13.900000	25.066618
13.910000	25.066618
13.920000	25.066618
13.930000	25.066618
13.940000	25.066618
13.950000	25.066618
13.960000	25.066618
13.970000	25.066618
13.980000	25.066618
13.990000	25.066618
14.000000	25.062259
14.010000	25.062259
14.020000	25.062259
14.030000	25.062259
14.040000	25.062259
14.050000	25.062259
14.060000	25.062259
14.070000	25.062259
14.080000	25.062259
14.090000	25.062259
14.100000	25.062259
14.110000	25.062259
14.120000	25.062259
14.130000	25.062259
14.140000	25.062259
14.150000	25.062259
14.160000	25.062259
14.170000	25.062259
14.180000	25.062259
14.190000	25.062259
14.200000	25.062259
14.210000	25.062259
14.220000	25.062259
14.230000	25.062259
14.240000	25.062259
14.250000	25.062259
14.260000	25.062259
14.270000	25.062259
14.280000	25.062259
14.290000	25.062259
14.300000	25.062259
14.310000	25.062259
14.320000	25.062259
14.330000	25.062259
14.340000	25.062259
14.350000	25.062259
14.360000	25.062259
14.370000	25.062259
14.380000	25.062259
14.390000	25.062259
14.400000	25.062259
14.410000	25.062259
14.420000	25.062259
14.430000	25.062259
14.440000	25.062259
14.450000	25.062259
14.460000	25.062259
14.470000	25.062259
14.480000	25.062259
14.490000	25.062259
14.500000	25.057942
14.510000	25.057942
14.520000	25.057942
14.530000	25.057942
14.540000	25.057942
14.550000	25.057942
14.560000	25.057942
14.570000	25.057942
14.580000	25.057942
14.590000	25.057942
14.600000	25.057942
14.610000	25.057942
14.620000	25.057942
14.630000	25.057942
14.640000	25.057942
14.650000	25.057942
14.660000	25.057942
14.670000	25.057942
14.680000	25.057942
14.690000	25.057942
14.700000	25.057942
14.710000	25.057942
14.720000	25.057942
14.730000	25.057942
14.740000	25.057942
14.750000	25.057942
14.760000	25.057942
14.770000	25.057942
14.780000	25.057942
14.790000	25.057942
14.800000	25.057942
14.810000	25.057942
14.820000	25.057942
14.830000	25.057942
14.840000	25.057942
14.850000	25.057942
14.860000	25.057942
14.870000	25.057942
14.880000	25.057942
14.890000	25.057942
14.900000	25.057942
14.910000	25.057942
14.920000	25.057942
14.930000	25.057942
14.940000	25.057942
14.950000	25.057942
14.960000	25.057942
14.970000	25.057942
14.980000	25.057942
14.990000	25.057942
15.000000	25.053807
15.010000	25.053807
15.020000	25.053807
15.030000	25.053807
15.040000	25.053807
15.050000	25.053807
15.060000	25.053807
15.070000	25.053807
15.080000	25.053807
15.090000	25.053807
15.100000	25.053807
15.110000	25.053807
15.120000	25.053807
15.130000	25.053807
15.140000	25.053807
15.150000	25.053807
15.160000	25.053807
15.170000	25.053807
15.180000	25.053807
15.190000	25.053807
15.200000	25.053807
15.210000	25.053807
15.220000	25.053807
15.230000	25.053807
15.240000	25.053807
15.250000	25.053807
15.260000	25.053807
15.270000	25.053807
15.280000	25.053807
15.290000	25.053807
15.300000	25.053807
15.310000	25.053807
15.320000	25.053807
15.330000	25.053807
15.340000	25.053807
15.350000	25.053807
15.360000	25.053807
15.370000	25.053807
15.380000	25.053807
15.390000	25.053807
15.400000	25.053807
15.410000	25.053807
15.420000	25.053807
15.430000	25.053807
15.440000	25.053807
15.450000	25.053807
15.460000	25.053807
15.470000	25.053807
15.480000	25.053807
15.490000	25.053807
15.500000	25.050041
15.510000	25.050041
15.520000	25.050041
15.530000	25.050041
15.540000	25.050041
15.550000	25.050041
15.560000	25.050041
15.570000	25.050041
15.580000	25.050041
15.590000	25.050041
15.600000	25.050041
15.610000	25.050041
15.620000	25.050041
15.630000	25.050041
15.640000	25.050041
15.650000	25.050041
15.660000	25.050041
15.670000	25.050041
15.680000	25.050041
15.690000	25.050041
15.700000	25.050041
15.710000	25.050041
15.720000	25.050041
15.730000	25.050041
15.740000	25.050041
15.750000	25.050041
15.760000	25.050041
15.770000	25.050041
15.780000	25.050041
15.790000	25.050041
15.800000	25.050041
15.810000	25.050041
15.820000	25.050041
15.830000	25.050041
15.840000	25.050041
15.850000	25.050041
15.860000	25.050041
15.870000	25.050041
15.880000	25.050041
15.890000	25.050041
15.900000	25.050041
15.910000	25.050041
15.920000	25.050041
15.930000	25.050041
15.940000	25.050041
15.950000	25.050041
15.960000	25.050041
15.970000	25.050041
15.980000	25.050041
15.990000	25.050041
16.000000	25.045896
16.010000	25.045896
16.020000	25.045896
16.030000	25.045896
16.040000	25.045896
16.050000	25.045896
16.060000	25.045896
16.070000	25.045896
16.080000	25.045896
16.090000	25.045896
16.100000	25.045896
16.110000	25.045896
16.120000	25.045896
16.130000	25.045896
16.140000	25.045896
16.150000	25.045896
16.160000	25.045896
16.170000	25.045896
16.180000	25.045896
16.190000	25.045896
16.200000	25.045896
16.210000	25.045896
16.220000	25.045896
16.230000	25.045896
16.240000	25.045896
16.250000	25.045896
16.260000	25.045896
16.270000	25.045896
16.280000	25.045896
16.290000	25.045896
16.300000	25.045896
16.310000	25.045896
16.320000	25.045896
16.330000	25.045896
16.340000	25.045896
16.350000	25.045896
16.360000	25.045896
16.370000	25.045896
16.380000	25.045896
16.390000	25.045896
16.400000	25.045896
16.410000	25.045896
16.420000	25.045896
16.430000	25.045896
16.440000	25.045896
16.450000	25.045896
16.460000	25.045896
16.470000	25.045896
16.480000	25.045896
16.490000	25.045896
16.500000	25.041561
16.510000	25.041561
16.520000	25.041561
16.530000	25.041561
16.540000	25.041561
16.550000	25.041561
16.560000	25.041561
16.570000	25.041561
16.580000	25.041561
16.590000	25.041561
16.600000	25.041561
16.610000	25.041561
16.620000	25.041561
16.630000	25.041561
16.640000	25.041561
16.650000	25.041561
16.660000	25.041561
16.670000	25.041561
16.680000	25.041561
16.690000	25.041561
16.700000	25.041561
16.710000	25.041561
16.720000	25.041561
16.730000	25.041561
16.740000	25.041561
16.750000	25.041561
16.760000	25.041561
16.770000	25.041561
16.780000	25.041561
16.790000	25.041561
16.800000	25.041561
16.810000	25.041561
16.820000	25.041561
16.830000	25.041561
16.840000	25.041561
16.850000	25.041561
16.860000	25.041561
16.870000	25.041561
16.880000	25.041561
16.890000	25.041561
16.900000	25.041561
16.910000	25.041561
16.920000	25.041561
16.930000	25.041561
16.940000	25.041561
16.950000	25.041561
16.960000	25.041561
16.970000	25.041561
16.980000	25.041561
16.990000	25.041561
17.000000	25.036872
17.010000	25.036872
17.020000	25.036872
17.030000	25.036872
17.040000	25.036872
17.050000	25.036872
17.060000	25.036872
17.070000	25.036872
17.080000	25.036872
17.090000	25.036872
17.100000	25.036872
17.110000	25.036872
17.120000	25.036872
17.130000	25.036872
17.140000	25.036872
17.150000	25.036872
17.160000	25.036872
17.170000	25.036872
17.180000	25.036872
17.190000	25.036872
17.200000	25.036872
17.210000	25.036872
17.220000	25.036872
17.230000	25.036872
17.240000	25.036872
17.250000	25.036872
17.260000	25.036872
17.270000	25.036872
17.280000	25.036872
17.290000	25.036872
17.300000	25.036872
17.310000	25.036872
17.320000	25.036872
17.330000	25.036872
17.340000	25.036872
17.350000	25.036872
17.360000	25.036872
17.370000	25.036872
17.380000	25.036872
17.390000	25.036872
17.400000	25.036872
17.410000	25.036872
17.420000	25.036872
17.430000	25.036872
17.440000	25.036872
17.450000	25.036872
17.460000	25.036872
17.470000	25.036872
17.480000	25.036872
17.490000	25.036872
