LabVIEW Measurement	
Writer_Version	2
Reader_Version	2
Separator	Tab
Decimal_Separator	.
Multi_Headings	No
X_Columns	One
Time_Pref	Absolute
Operator	biomech-dyno
Date	2023/04/27
Time	17:41:55.9338632999999876419
***End_of_Header***	
	
Channels	1	
Samples	10	
Date	2023/04/27	
Time	17:55:31.1511989999998751067	
X_Dimension	Time	
X0	0.0000000000000000E+0	
Delta_X	0.010000	
***End_of_Header***		
X_Value	Untitled	Comment
0.000000	25.001250
0.010000	25.001250
0.020000	25.001250
0.030000	25.001250
0.040000	25.001250
0.050000	25.001250
0.060000	25.001250
0.070000	25.001250
0.080000	25.001250
0.090000	25.001250
0.100000	25.001250
0.110000	25.001250
0.120000	25.001250
0.130000	25.001250
0.140000	25.001250
0.150000	25.001250
0.160000	25.001250
0.170000	25.001250
0.180000	25.001250
0.190000	25.001250
0.200000	25.001250
0.210000	25.001250
0.220000	25.001250
0.230000	25.001250
0.240000	25.001250
0.250000	25.001250
0.260000	25.001250
0.270000	25.001250
0.280000	25.001250
0.290000	25.001250
0.300000	25.001250
0.310000	25.001250
0.320000	25.001250
0.330000	25.001250
0.340000	25.001250
0.350000	25.001250
0.360000	25.001250
0.370000	25.001250
0.380000	25.001250
0.390000	25.001250
0.400000	25.001250
0.410000	25.001250
0.420000	25.001250
0.430000	25.001250
0.440000	25.001250
0.450000	25.001250
0.460000	25.001250
0.470000	25.001250
0.480000	25.001250
0.490000	25.001250
0.500000	25.013360
0.510000	25.013360
0.520000	25.013360
0.530000	25.013360
0.540000	25.013360
0.550000	25.013360
0.560000	25.013360
0.570000	25.013360
0.580000	25.013360
0.590000	25.013360
0.600000	25.013360
0.610000	25.013360
0.620000	25.013360
0.630000	25.013360
0.640000	25.013360
0.650000	25.013360
0.660000	25.013360
0.670000	25.013360
0.680000	25.013360
0.690000	25.013360
0.700000	25.013360
0.710000	25.013360
0.720000	25.013360
0.730000	25.013360
0.740000	25.013360
0.750000	25.013360
0.760000	25.013360
0.770000	25.013360
0.780000	25.013360
0.790000	25.013360
0.800000	25.013360
0.810000	25.013360
0.820000	25.013360
0.830000	25.013360
0.840000	25.013360
0.850000	25.013360
0.860000	25.013360
0.870000	25.013360
0.880000	25.013360
0.890000	25.013360
0.900000	25.013360
0.910000	25.013360
0.920000	25.013360
0.930000	25.013360
0.940000	25.013360
0.950000	25.013360
0.960000	25.013360
0.970000	25.013360
0.980000	25.013360
0.990000	25.013360
1.000000	25.242671
1.010000	25.242671
1.020000	25.242671
1.030000	25.242671
1.040000	25.242671
1.050000	25.242671
1.060000	25.242671
1.070000	25.242671
1.080000	25.242671
1.090000	25.242671
1.100000	25.242671
1.110000	25.242671
1.120000	25.242671
1.130000	25.242671
1.140000	25.242671
1.150000	25.242671
1.160000	25.242671
1.170000	25.242671
1.180000	25.242671
1.190000	25.242671
1.200000	25.242671
1.210000	25.242671
1.220000	25.242671
1.230000	25.242671
1.240000	25.242671
1.250000	25.242671
1.260000	25.242671
1.270000	25.242671
1.280000	25.242671
1.290000	25.242671
1.300000	25.242671
1.310000	25.242671
1.320000	25.242671
1.330000	25.242671
1.340000	25.242671
1.350000	25.242671
1.360000	25.242671
1.370000	25.242671
1.380000	25.242671
1.390000	25.242671
1.400000	25.242671
1.410000	25.242671
1.420000	25.242671
1.430000	25.242671
1.440000	25.242671
1.450000	25.242671
1.460000	25.242671
1.470000	25.242671
1.480000	25.242671
1.490000	25.242671
1.500000	25.794955
1.510000	25.794955
1.520000	25.794955
1.530000	25.794955
1.540000	25.794955
1.550000	25.794955
1.560000	25.794955
1.570000	25.794955
1.580000	25.794955
1.590000	25.794955
1.600000	25.794955
1.610000	25.794955
1.620000	25.794955
1.630000	25.794955
1.640000	25.794955
1.650000	25.794955
1.660000	25.794955
1.670000	25.794955
1.680000	25.794955
1.690000	25.794955
1.700000	25.794955
1.710000	25.794955
1.720000	25.794955
1.730000	25.794955
1.740000	25.794955
1.750000	25.794955
1.760000	25.794955
1.770000	25.794955
1.780000	25.794955
1.790000	25.794955
1.800000	25.794955
1.810000	25.794955
1.820000	25.794955
1.830000	25.794955
1.840000	25.794955
1.850000	25.794955
1.860000	25.794955
1.870000	25.794955
1.880000	25.794955
1.890000	25.794955
1.900000	25.794955
1.910000	25.794955
1.920000	25.794955
1.930000	25.794955
1.940000	25.794955
1.950000	25.794955
1.960000	25.794955
1.970000	25.794955
1.980000	25.794955
1.990000	25.794955
2.000000	26.611691
2.010000	26.611691
2.020000	26.611691
2.030000	26.611691
2.040000	26.611691
2.050000	26.611691
2.060000	26.611691
2.070000	26.611691
2.080000	26.611691
2.090000	26.611691
2.100000	26.611691
2.110000	26.611691
2.120000	26.611691
2.130000	26.611691
2.140000	26.611691
2.150000	26.611691
2.160000	26.611691
2.170000	26.611691
2.180000	26.611691
2.190000	26.611691
2.200000	26.611691
2.210000	26.611691
2.220000	26.611691
2.230000	26.611691
2.240000	26.611691
2.250000	26.611691
2.260000	26.611691
2.270000	26.611691
2.280000	26.611691
2.290000	26.611691
2.300000	26.611691
2.310000	26.611691
2.320000	26.611691
2.330000	26.611691
2.340000	26.611691
2.350000	26.611691
2.360000	26.611691
2.370000	26.611691
2.380000	26.611691
2.390000	26.611691
2.400000	26.611691
2.410000	26.611691
2.420000	26.611691
2.430000	26.611691
2.440000	26.611691
2.450000	26.611691
2.460000	26.611691
2.470000	26.611691
2.480000	26.611691
2.490000	26.611691
2.500000	27.617927
2.510000	27.617927
2.520000	27.617927
2.530000	27.617927
2.540000	27.617927
2.550000	27.617927
2.560000	27.617927
2.570000	27.617927
2.580000	27.617927
2.590000	27.617927
2.600000	27.617927
2.610000	27.617927
2.620000	27.617927
2.630000	27.617927
2.640000	27.617927
2.650000	27.617927
2.660000	27.617927
2.670000	27.617927
2.680000	27.617927
2.690000	27.617927
2.700000	27.617927
2.710000	27.617927
2.720000	27.617927
2.730000	27.617927
2.740000	27.617927
2.750000	27.617927
2.760000	27.617927
2.770000	27.617927
2.780000	27.617927
2.790000	27.617927
2.800000	27.617927
2.810000	27.617927
2.820000	27.617927
2.830000	27.617927
2.840000	27.617927
2.850000	27.617927
2.860000	27.617927
2.870000	27.617927
2.880000	27.617927
2.890000	27.617927
2.900000	27.617927
2.910000	27.617927
2.920000	27.617927
2.930000	27.617927
2.940000	27.617927
2.950000	27.617927
2.960000	27.617927
2.970000	27.617927
2.980000	27.617927
2.990000	27.617927
3.000000	28.706491
3.010000	28.706491
3.020000	28.706491
3.030000	28.706491
3.040000	28.706491
3.050000	28.706491
3.060000	28.706491
3.070000	28.706491
3.080000	28.706491
3.090000	28.706491
3.100000	28.706491
3.110000	28.706491
3.120000	28.706491
3.130000	28.706491
3.140000	28.706491
3.150000	28.706491
3.160000	28.706491
3.170000	28.706491
3.180000	28.706491
3.190000	28.706491
3.200000	28.706491
3.210000	28.706491
3.220000	28.706491
3.230000	28.706491
3.240000	28.706491
3.250000	28.706491
3.260000	28.706491
3.270000	28.706491
3.280000	28.706491
3.290000	28.706491
3.300000	28.706491
3.310000	28.706491
3.320000	28.706491
3.330000	28.706491
3.340000	28.706491
3.350000	28.706491
3.360000	28.706491
3.370000	28.706491
3.380000	28.706491
3.390000	28.706491
3.400000	28.706491
3.410000	28.706491
3.420000	28.706491
3.430000	28.706491
3.440000	28.706491
3.450000	28.706491
3.460000	28.706491
3.470000	28.706491
3.480000	28.706491
3.490000	28.706491
3.500000	29.627887
3.510000	29.627887
3.520000	29.627887
3.530000	29.627887
3.540000	29.627887
3.550000	29.627887
3.560000	29.627887
3.570000	29.627887
3.580000	29.627887
3.590000	29.627887
3.600000	29.627887
3.610000	29.627887
3.620000	29.627887
3.630000	29.627887
3.640000	29.627887
3.650000	29.627887
3.660000	29.627887
3.670000	29.627887
3.680000	29.627887
3.690000	29.627887
3.700000	29.627887
3.710000	29.627887
3.720000	29.627887
3.730000	29.627887
3.740000	29.627887
3.750000	29.627887
3.760000	29.627887
3.770000	29.627887
3.780000	29.627887
3.790000	29.627887
3.800000	29.627887
3.810000	29.627887
3.820000	29.627887
3.830000	29.627887
3.840000	29.627887
3.850000	29.627887
3.860000	29.627887
3.870000	29.627887
3.880000	29.627887
3.890000	29.627887
3.900000	29.627887
3.910000	29.627887
3.920000	29.627887
3.930000	29.627887
3.940000	29.627887
3.950000	29.627887
3.960000	29.627887
3.970000	29.627887
3.980000	29.627887
3.990000	29.627887
4.000000	30.311280
4.010000	30.311280
4.020000	30.311280
4.030000	30.311280
4.040000	30.311280
4.050000	30.311280
4.060000	30.311280
4.070000	30.311280
4.080000	30.311280
4.090000	30.311280
4.100000	30.311280
4.110000	30.311280
4.120000	30.311280
4.130000	30.311280
4.140000	30.311280
4.150000	30.311280
4.160000	30.311280
4.170000	30.311280
4.180000	30.311280
4.190000	30.311280
4.200000	30.311280
4.210000	30.311280
4.220000	30.311280
4.230000	30.311280
4.240000	30.311280
4.250000	30.311280
4.260000	30.311280
4.270000	30.311280
4.280000	30.311280
4.290000	30.311280
4.300000	30.311280
4.310000	30.311280
4.320000	30.311280
4.330000	30.311280
4.340000	30.311280
4.350000	30.311280
4.360000	30.311280
4.370000	30.311280
4.380000	30.311280
4.390000	30.311280
4.400000	30.311280
4.410000	30.311280
4.420000	30.311280
4.430000	30.311280
4.440000	30.311280
4.450000	30.311280
4.460000	30.311280
4.470000	30.311280
4.480000	30.311280
4.490000	30.311280
4.500000	30.795443
4.510000	30.795443
4.520000	30.795443
4.530000	30.795443
4.540000	30.795443
4.550000	30.795443
4.560000	30.795443
4.570000	30.795443
4.580000	30.795443
4.590000	30.795443
4.600000	30.795443
4.610000	30.795443
4.620000	30.795443
4.630000	30.795443
4.640000	30.795443
4.650000	30.795443
4.660000	30.795443
4.670000	30.795443
4.680000	30.795443
4.690000	30.795443
4.700000	30.795443
4.710000	30.795443
4.720000	30.795443
4.730000	30.795443
4.740000	30.795443
4.750000	30.795443
4.760000	30.795443
4.770000	30.795443
4.780000	30.795443
4.790000	30.795443
4.800000	30.795443
4.810000	30.795443
4.820000	30.795443
4.830000	30.795443
4.840000	30.795443
4.850000	30.795443
4.860000	30.795443
4.870000	30.795443
4.880000	30.795443
4.890000	30.795443
4.900000	30.795443
4.910000	30.795443
4.920000	30.795443
4.930000	30.795443
4.940000	30.795443
4.950000	30.795443
4.960000	30.795443
4.970000	30.795443
4.980000	30.795443
4.990000	30.795443
5.000000	31.127234
5.010000	31.127234
5.020000	31.127234
5.030000	31.127234
5.040000	31.127234
5.050000	31.127234
5.060000	31.127234
5.070000	31.127234
5.080000	31.127234
5.090000	31.127234
5.100000	31.127234
5.110000	31.127234
5.120000	31.127234
5.130000	31.127234
5.140000	31.127234
5.150000	31.127234
5.160000	31.127234
5.170000	31.127234
5.180000	31.127234
5.190000	31.127234
5.200000	31.127234
5.210000	31.127234
5.220000	31.127234
5.230000	31.127234
5.240000	31.127234
5.250000	31.127234
5.260000	31.127234
5.270000	31.127234
5.280000	31.127234
5.290000	31.127234
5.300000	31.127234
5.310000	31.127234
5.320000	31.127234
5.330000	31.127234
5.340000	31.127234
5.350000	31.127234
5.360000	31.127234
5.370000	31.127234
5.380000	31.127234
5.390000	31.127234
5.400000	31.127234
5.410000	31.127234
5.420000	31.127234
5.430000	31.127234
5.440000	31.127234
5.450000	31.127234
5.460000	31.127234
5.470000	31.127234
5.480000	31.127234
5.490000	31.127234
5.500000	31.350913
5.510000	31.350913
5.520000	31.350913
5.530000	31.350913
5.540000	31.350913
5.550000	31.350913
5.560000	31.350913
5.570000	31.350913
5.580000	31.350913
5.590000	31.350913
5.600000	31.350913
5.610000	31.350913
5.620000	31.350913
5.630000	31.350913
5.640000	31.350913
5.650000	31.350913
5.660000	31.350913
5.670000	31.350913
5.680000	31.350913
5.690000	31.350913
5.700000	31.350913
5.710000	31.350913
5.720000	31.350913
5.730000	31.350913
5.740000	31.350913
5.750000	31.350913
5.760000	31.350913
5.770000	31.350913
5.780000	31.350913
5.790000	31.350913
5.800000	31.350913
5.810000	31.350913
5.820000	31.350913
5.830000	31.350913
5.840000	31.350913
5.850000	31.350913
5.860000	31.350913
5.870000	31.350913
5.880000	31.350913
5.890000	31.350913
5.900000	31.350913
5.910000	31.350913
5.920000	31.350913
5.930000	31.350913
5.940000	31.350913
5.950000	31.350913
5.960000	31.350913
5.970000	31.350913
5.980000	31.350913
5.990000	31.350913
6.000000	31.490521
6.010000	31.490521
6.020000	31.490521
6.030000	31.490521
6.040000	31.490521
6.050000	31.490521
6.060000	31.490521
6.070000	31.490521
6.080000	31.490521
6.090000	31.490521
6.100000	31.490521
6.110000	31.490521
6.120000	31.490521
6.130000	31.490521
6.140000	31.490521
6.150000	31.490521
6.160000	31.490521
6.170000	31.490521
6.180000	31.490521
6.190000	31.490521
6.200000	31.490521
6.210000	31.490521
6.220000	31.490521
6.230000	31.490521
6.240000	31.490521
6.250000	31.490521
6.260000	31.490521
6.270000	31.490521
6.280000	31.490521
6.290000	31.490521
6.300000	31.490521
6.310000	31.490521
6.320000	31.490521
6.330000	31.490521
6.340000	31.490521
6.350000	31.490521
6.360000	31.490521
6.370000	31.490521
6.380000	31.490521
6.390000	31.490521
6.400000	31.490521
6.410000	31.490521
6.420000	31.490521
6.430000	31.490521
6.440000	31.490521
6.450000	31.490521
6.460000	31.490521
6.470000	31.490521
6.480000	31.490521
6.490000	31.490521
6.500000	31.560591
6.510000	31.560591
6.520000	31.560591
6.530000	31.560591
6.540000	31.560591
6.550000	31.560591
6.560000	31.560591
6.570000	31.560591
6.580000	31.560591
6.590000	31.560591
6.600000	31.560591
6.610000	31.560591
6.620000	31.560591
6.630000	31.560591
6.640000	31.560591
6.650000	31.560591
6.660000	31.560591
6.670000	31.560591
6.680000	31.560591
6.690000	31.560591
6.700000	31.560591
6.710000	31.560591
6.720000	31.560591
6.730000	31.560591
6.740000	31.560591
6.750000	31.560591
6.760000	31.560591
6.770000	31.560591
6.780000	31.560591
6.790000	31.560591
6.800000	31.560591
6.810000	31.560591
6.820000	31.560591
6.830000	31.560591
6.840000	31.560591
6.850000	31.560591
6.860000	31.560591
6.870000	31.560591
6.880000	31.560591
6.890000	31.560591
6.900000	31.560591
6.910000	31.560591
6.920000	31.560591
6.930000	31.560591
6.940000	31.560591
6.950000	31.560591
6.960000	31.560591
6.970000	31.560591
6.980000	31.560591
6.990000	31.560591
7.000000	31.577812
7.010000	31.577812
7.020000	31.577812
7.030000	31.577812
7.040000	31.577812
7.050000	31.577812
7.060000	31.577812
7.070000	31.577812
7.080000	31.577812
7.090000	31.577812
7.100000	31.577812
7.110000	31.577812
7.120000	31.577812
7.130000	31.577812
7.140000	31.577812
7.150000	31.577812
7.160000	31.577812
7.170000	31.577812
7.180000	31.577812
7.190000	31.577812
7.200000	31.577812
7.210000	31.577812
7.220000	31.577812
7.230000	31.577812
7.240000	31.577812
7.250000	31.577812
7.260000	31.577812
7.270000	31.577812
7.280000	31.577812
7.290000	31.577812
7.300000	31.577812
7.310000	31.577812
7.320000	31.577812
7.330000	31.577812
7.340000	31.577812
7.350000	31.577812
7.360000	31.577812
7.370000	31.577812
7.380000	31.577812
7.390000	31.577812
7.400000	31.577812
7.410000	31.577812
7.420000	31.577812
7.430000	31.577812
7.440000	31.577812
7.450000	31.577812
7.460000	31.577812
7.470000	31.577812
7.480000	31.577812
7.490000	31.577812
7.500000	31.550606
7.510000	31.550606
7.520000	31.550606
7.530000	31.550606
7.540000	31.550606
7.550000	31.550606
7.560000	31.550606
7.570000	31.550606
7.580000	31.550606
7.590000	31.550606
7.600000	31.550606
7.610000	31.550606
7.620000	31.550606
7.630000	31.550606
7.640000	31.550606
7.650000	31.550606
7.660000	31.550606
7.670000	31.550606
7.680000	31.550606
7.690000	31.550606
7.700000	31.550606
7.710000	31.550606
7.720000	31.550606
7.730000	31.550606
7.740000	31.550606
7.750000	31.550606
7.760000	31.550606
7.770000	31.550606
7.780000	31.550606
7.790000	31.550606
7.800000	31.550606
7.810000	31.550606
7.820000	31.550606
7.830000	31.550606
7.840000	31.550606
7.850000	31.550606
7.860000	31.550606
7.870000	31.550606
7.880000	31.550606
7.890000	31.550606
7.900000	31.550606
7.910000	31.550606
7.920000	31.550606
7.930000	31.550606
7.940000	31.550606
7.950000	31.550606
7.960000	31.550606
7.970000	31.550606
7.980000	31.550606
7.990000	31.550606
8.000000	31.495553
8.010000	31.495553
8.020000	31.495553
8.030000	31.495553
8.040000	31.495553
8.050000	31.495553
8.060000	31.495553
8.070000	31.495553
8.080000	31.495553
8.090000	31.495553
8.100000	31.495553
8.110000	31.495553
8.120000	31.495553
8.130000	31.495553
8.140000	31.495553
8.150000	31.495553
8.160000	31.495553
8.170000	31.495553
8.180000	31.495553
8.190000	31.495553
8.200000	31.495553
8.210000	31.495553
8.220000	31.495553
8.230000	31.495553
8.240000	31.495553
8.250000	31.495553
8.260000	31.495553
8.270000	31.495553
8.280000	31.495553
8.290000	31.495553
8.300000	31.495553
8.310000	31.495553
8.320000	31.495553
8.330000	31.495553
8.340000	31.495553
8.350000	31.495553
8.360000	31.495553
8.370000	31.495553
8.380000	31.495553
8.390000	31.495553
8.400000	31.495553
8.410000	31.495553
8.420000	31.495553
8.430000	31.495553
8.440000	31.495553
8.450000	31.495553
8.460000	31.495553
8.470000	31.495553
8.480000	31.495553
8.490000	31.495553
8.500000	31.419728
8.510000	31.419728
8.520000	31.419728
8.530000	31.419728
8.540000	31.419728
8.550000	31.419728
8.560000	31.419728
8.570000	31.419728
8.580000	31.419728
8.590000	31.419728
8.600000	31.419728
8.610000	31.419728
8.620000	31.419728
8.630000	31.419728
8.640000	31.419728
8.650000	31.419728
8.660000	31.419728
8.670000	31.419728
8.680000	31.419728
8.690000	31.419728
8.700000	31.419728
8.710000	31.419728
8.720000	31.419728
8.730000	31.419728
8.740000	31.419728
8.750000	31.419728
8.760000	31.419728
8.770000	31.419728
8.780000	31.419728
8.790000	31.419728
8.800000	31.419728
8.810000	31.419728
8.820000	31.419728
8.830000	31.419728
8.840000	31.419728
8.850000	31.419728
8.860000	31.419728
8.870000	31.419728
8.880000	31.419728
8.890000	31.419728
8.900000	31.419728
8.910000	31.419728
8.920000	31.419728
8.930000	31.419728
8.940000	31.419728
8.950000	31.419728
8.960000	31.419728
8.970000	31.419728
8.980000	31.419728
8.990000	31.419728
9.000000	31.329775
9.010000	31.329775
9.020000	31.329775
9.030000	31.329775
9.040000	31.329775
9.050000	31.329775
9.060000	31.329775
9.070000	31.329775
9.080000	31.329775
9.090000	31.329775
9.100000	31.329775
9.110000	31.329775
9.120000	31.329775
9.130000	31.329775
9.140000	31.329775
9.150000	31.329775
9.160000	31.329775
9.170000	31.329775
9.180000	31.329775
9.190000	31.329775
9.200000	31.329775
9.210000	31.329775
9.220000	31.329775
9.230000	31.329775
9.240000	31.329775
9.250000	31.329775
9.260000	31.329775
9.270000	31.329775
9.280000	31.329775
9.290000	31.329775
9.300000	31.329775
9.310000	31.329775
9.320000	31.329775
9.330000	31.329775
9.340000	31.329775
9.350000	31.329775
9.360000	31.329775
9.370000	31.329775
9.380000	31.329775
9.390000	31.329775
9.400000	31.329775
9.410000	31.329775
9.420000	31.329775
9.430000	31.329775
9.440000	31.329775
9.450000	31.329775
9.460000	31.329775
9.470000	31.329775
9.480000	31.329775
9.490000	31.329775
9.500000	31.227841
9.510000	31.227841
9.520000	31.227841
9.530000	31.227841
9.540000	31.227841
9.550000	31.227841
9.560000	31.227841
9.570000	31.227841
9.580000	31.227841
9.590000	31.227841
9.600000	31.227841
9.610000	31.227841
9.620000	31.227841
9.630000	31.227841
9.640000	31.227841
9.650000	31.227841
9.660000	31.227841
9.670000	31.227841
9.680000	31.227841
9.690000	31.227841
9.700000	31.227841
9.710000	31.227841
9.720000	31.227841
9.730000	31.227841
9.740000	31.227841
9.750000	31.227841
9.760000	31.227841
9.770000	31.227841
9.780000	31.227841
9.790000	31.227841
9.800000	31.227841
9.810000	31.227841
9.820000	31.227841
9.830000	31.227841
9.840000	31.227841
9.850000	31.227841
9.860000	31.227841
9.870000	31.227841
9.880000	31.227841
9.890000	31.227841
9.900000	31.227841
9.910000	31.227841
9.920000	31.227841
9.930000	31.227841
9.940000	31.227841
9.950000	31.227841
9.960000	31.227841
9.970000	31.227841
9.980000	31.227841
9.990000	31.227841
10.000000	31.117256
10.010000	31.117256
10.020000	31.117256
10.030000	31.117256
10.040000	31.117256
10.050000	31.117256
10.060000	31.117256
10.070000	31.117256
10.080000	31.117256
10.090000	31.117256
10.100000	31.117256
10.110000	31.117256
10.120000	31.117256
10.130000	31.117256
10.140000	31.117256
10.150000	31.117256
10.160000	31.117256
10.170000	31.117256
10.180000	31.117256
10.190000	31.117256
10.200000	31.117256
10.210000	31.117256
10.220000	31.117256
10.230000	31.117256
10.240000	31.117256
10.250000	31.117256
10.260000	31.117256
10.270000	31.117256
10.280000	31.117256
10.290000	31.117256
10.300000	31.117256
10.310000	31.117256
10.320000	31.117256
10.330000	31.117256
10.340000	31.117256
10.350000	31.117256
10.360000	31.117256
10.370000	31.117256
10.380000	31.117256
10.390000	31.117256
10.400000	31.117256
10.410000	31.117256
10.420000	31.117256
10.430000	31.117256
10.440000	31.117256
10.450000	31.117256
10.460000	31.117256
10.470000	31.117256
10.480000	31.117256
10.490000	31.117256
10.500000	31.000422
10.510000	31.000422
10.520000	31.000422
10.530000	31.000422
10.540000	31.000422
10.550000	31.000422
10.560000	31.000422
10.570000	31.000422
10.580000	31.000422
10.590000	31.000422
10.600000	31.000422
10.610000	31.000422
10.620000	31.000422
10.630000	31.000422
10.640000	31.000422
10.650000	31.000422
10.660000	31.000422
10.670000	31.000422
10.680000	31.000422
10.690000	31.000422
10.700000	31.000422
10.710000	31.000422
10.720000	31.000422
10.730000	31.000422
10.740000	31.000422
10.750000	31.000422
10.760000	31.000422
10.770000	31.000422
10.780000	31.000422
10.790000	31.000422
10.800000	31.000422
10.810000	31.000422
10.820000	31.000422
10.830000	31.000422
10.840000	31.000422
10.850000	31.000422
10.860000	31.000422
10.870000	31.000422
10.880000	31.000422
10.890000	31.000422
10.900000	31.000422
10.910000	31.000422
10.920000	31.000422
10.930000	31.000422
10.940000	31.000422
10.950000	31.000422
10.960000	31.000422
10.970000	31.000422
10.980000	31.000422
10.990000	31.000422
11.000000	30.882840
11.010000	30.882840
11.020000	30.882840
11.030000	30.882840
11.040000	30.882840
11.050000	30.882840
11.060000	30.882840
11.070000	30.882840
11.080000	30.882840
11.090000	30.882840
11.100000	30.882840
11.110000	30.882840
11.120000	30.882840
11.130000	30.882840
11.140000	30.882840
11.150000	30.882840
11.160000	30.882840
11.170000	30.882840
11.180000	30.882840
11.190000	30.882840
11.200000	30.882840
11.210000	30.882840
11.220000	30.882840
11.230000	30.882840
11.240000	30.882840
11.250000	30.882840
11.260000	30.882840
11.270000	30.882840
11.280000	30.882840
11.290000	30.882840
11.300000	30.882840
11.310000	30.882840
11.320000	30.882840
11.330000	30.882840
11.340000	30.882840
11.350000	30.882840
11.360000	30.882840
11.370000	30.882840
11.380000	30.882840
11.390000	30.882840
11.400000	30.882840
11.410000	30.882840
11.420000	30.882840
11.430000	30.882840
11.440000	30.882840
11.450000	30.882840
11.460000	30.882840
11.470000	30.882840
11.480000	30.882840
11.490000	30.882840
11.500000	30.764125
11.510000	30.764125
11.520000	30.764125
11.530000	30.764125
11.540000	30.764125
11.550000	30.764125
11.560000	30.764125
11.570000	30.764125
11.580000	30.764125
11.590000	30.764125
11.600000	30.764125
11.610000	30.764125
11.620000	30.764125
11.630000	30.764125
11.640000	30.764125
11.650000	30.764125
11.660000	30.764125
11.670000	30.764125
11.680000	30.764125
11.690000	30.764125
11.700000	30.764125
11.710000	30.764125
11.720000	30.764125
11.730000	30.764125
11.740000	30.764125
11.750000	30.764125
11.760000	30.764125
11.770000	30.764125
11.780000	30.764125
11.790000	30.764125
11.800000	30.764125
11.810000	30.764125
11.820000	30.764125
11.830000	30.764125
11.840000	30.764125
11.850000	30.764125
11.860000	30.764125
11.870000	30.764125
11.880000	30.764125
11.890000	30.764125
11.900000	30.764125
11.910000	30.764125
11.920000	30.764125
11.930000	30.764125
11.940000	30.764125
11.950000	30.764125
11.960000	30.764125
11.970000	30.764125
11.980000	30.764125
11.990000	30.764125
12.000000	30.641545
12.010000	30.641545
12.020000	30.641545
12.030000	30.641545
12.040000	30.641545
12.050000	30.641545
12.060000	30.641545
12.070000	30.641545
12.080000	30.641545
12.090000	30.641545
12.100000	30.641545
12.110000	30.641545
12.120000	30.641545
12.130000	30.641545
12.140000	30.641545
12.150000	30.641545
12.160000	30.641545
12.170000	30.641545
12.180000	30.641545
12.190000	30.641545
12.200000	30.641545
12.210000	30.641545
12.220000	30.641545
12.230000	30.641545
12.240000	30.641545
12.250000	30.641545
12.260000	30.641545
12.270000	30.641545
12.280000	30.641545
12.290000	30.641545
12.300000	30.641545
12.310000	30.641545
12.320000	30.641545
12.330000	30.641545
12.340000	30.641545
12.350000	30.641545
12.360000	30.641545
12.370000	30.641545
12.380000	30.641545
12.390000	30.641545
12.400000	30.641545
12.410000	30.641545
12.420000	30.641545
12.430000	30.641545
12.440000	30.641545
12.450000	30.641545
12.460000	30.641545
12.470000	30.641545
12.480000	30.641545
12.490000	30.641545
12.500000	30.517292
12.510000	30.517292
12.520000	30.517292
12.530000	30.517292
12.540000	30.517292
12.550000	30.517292
12.560000	30.517292
12.570000	30.517292
12.580000	30.517292
12.590000	30.517292
12.600000	30.517292
12.610000	30.517292
12.620000	30.517292
12.630000	30.517292
12.640000	30.517292
12.650000	30.517292
12.660000	30.517292
12.670000	30.517292
12.680000	30.517292
12.690000	30.517292
12.700000	30.517292
12.710000	30.517292
12.720000	30.517292
12.730000	30.517292
12.740000	30.517292
12.750000	30.517292
12.760000	30.517292
12.770000	30.517292
12.780000	30.517292
12.790000	30.517292
12.800000	30.517292
12.810000	30.517292
12.820000	30.517292
12.830000	30.517292
12.840000	30.517292
12.850000	30.517292
12.860000	30.517292
12.870000	30.517292
12.880000	30.517292
12.890000	30.517292
12.900000	30.517292
12.910000	30.517292
12.920000	30.517292
12.930000	30.517292
12.940000	30.517292
12.950000	30.517292
12.960000	30.517292
12.970000	30.517292
12.980000	30.517292
12.990000	30.517292
13.000000	30.396027
13.010000	30.396027
13.020000	30.396027
13.030000	30.396027
13.040000	30.396027
13.050000	30.396027
13.060000	30.396027
13.070000	30.396027
13.080000	30.396027
13.090000	30.396027
13.100000	30.396027
13.110000	30.396027
13.120000	30.396027
13.130000	30.396027
13.140000	30.396027
13.150000	30.396027
13.160000	30.396027
13.170000	30.396027
13.180000	30.396027
13.190000	30.396027
13.200000	30.396027
13.210000	30.396027
13.220000	30.396027
13.230000	30.396027
13.240000	30.396027
13.250000	30.396027
13.260000	30.396027
13.270000	30.396027
13.280000	30.396027
13.290000	30.396027
13.300000	30.396027
13.310000	30.396027
13.320000	30.396027
13.330000	30.396027
13.340000	30.396027
13.350000	30.396027
13.360000	30.396027
13.370000	30.396027
13.380000	30.396027
13.390000	30.396027
13.400000	30.396027
13.410000	30.396027
13.420000	30.396027
13.430000	30.396027
13.440000	30.396027
13.450000	30.396027
13.460000	30.396027
13.470000	30.396027
13.480000	30.396027
13.490000	30.396027
13.500000	30.279281
13.510000	30.279281
13.520000	30.279281
13.530000	30.279281
13.540000	30.279281
13.550000	30.279281
13.560000	30.279281
13.570000	30.279281
13.580000	30.279281
13.590000	30.279281
13.600000	30.279281
13.610000	30.279281
13.620000	30.279281
13.630000	30.279281
13.640000	30.279281
13.650000	30.279281
13.660000	30.279281
13.670000	30.279281
13.680000	30.279281
13.690000	30.279281
13.700000	30.279281
13.710000	30.279281
13.720000	30.279281
13.730000	30.279281
13.740000	30.279281
13.750000	30.279281
13.760000	30.279281
13.770000	30.279281
13.780000	30.279281
13.790000	30.279281
13.800000	30.279281
13.810000	30.279281
13.820000	30.279281
13.830000	30.279281
13.840000	30.279281
13.850000	30.279281
13.860000	30.279281
13.870000	30.279281
13.880000	30.279281
13.890000	30.279281
13.900000	30.279281
13.910000	30.279281
13.920000	30.279281
13.930000	30.279281
13.940000	30.279281
13.950000	30.279281
13.960000	30.279281
13.970000	30.279281
13.980000	30.279281
13.990000	30.279281
14.000000	30.165704
14.010000	30.165704
14.020000	30.165704
14.030000	30.165704
14.040000	30.165704
14.050000	30.165704
14.060000	30.165704
14.070000	30.165704
14.080000	30.165704
14.090000	30.165704
14.100000	30.165704
14.110000	30.165704
14.120000	30.165704
14.130000	30.165704
14.140000	30.165704
14.150000	30.165704
14.160000	30.165704
14.170000	30.165704
14.180000	30.165704
14.190000	30.165704
14.200000	30.165704
14.210000	30.165704
14.220000	30.165704
14.230000	30.165704
14.240000	30.165704
14.250000	30.165704
14.260000	30.165704
14.270000	30.165704
14.280000	30.165704
14.290000	30.165704
14.300000	30.165704
14.310000	30.165704
14.320000	30.165704
14.330000	30.165704
14.340000	30.165704
14.350000	30.165704
14.360000	30.165704
14.370000	30.165704
14.380000	30.165704
14.390000	30.165704
14.400000	30.165704
14.410000	30.165704
14.420000	30.165704
14.430000	30.165704
14.440000	30.165704
14.450000	30.165704
14.460000	30.165704
14.470000	30.165704
14.480000	30.165704
14.490000	30.165704
14.500000	30.051728
14.510000	30.051728
14.520000	30.051728
14.530000	30.051728
14.540000	30.051728
14.550000	30.051728
14.560000	30.051728
14.570000	30.051728
14.580000	30.051728
14.590000	30.051728
14.600000	30.051728
14.610000	30.051728
14.620000	30.051728
14.630000	30.051728
14.640000	30.051728
14.650000	30.051728
14.660000	30.051728
14.670000	30.051728
14.680000	30.051728
14.690000	30.051728
14.700000	30.051728
14.710000	30.051728
14.720000	30.051728
14.730000	30.051728
14.740000	30.051728
14.750000	30.051728
14.760000	30.051728
14.770000	30.051728
14.780000	30.051728
14.790000	30.051728
14.800000	30.051728
14.810000	30.051728
14.820000	30.051728
14.830000	30.051728
14.840000	30.051728
14.850000	30.051728
14.860000	30.051728
14.870000	30.051728
14.880000	30.051728
14.890000	30.051728
14.900000	30.051728
14.910000	30.051728
14.920000	30.051728
14.930000	30.051728
14.940000	30.051728
14.950000	30.051728
14.960000	30.051728
14.970000	30.051728
14.980000	30.051728
14.990000	30.051728
15.000000	29.938043
15.010000	29.938043
15.020000	29.938043
15.030000	29.938043
15.040000	29.938043
15.050000	29.938043
15.060000	29.938043
15.070000	29.938043
15.080000	29.938043
15.090000	29.938043
15.100000	29.938043
15.110000	29.938043
15.120000	29.938043
15.130000	29.938043
15.140000	29.938043
15.150000	29.938043
15.160000	29.938043
15.170000	29.938043
15.180000	29.938043
15.190000	29.938043
15.200000	29.938043
15.210000	29.938043
15.220000	29.938043
15.230000	29.938043
15.240000	29.938043
15.250000	29.938043
15.260000	29.938043
15.270000	29.938043
15.280000	29.938043
15.290000	29.938043
15.300000	29.938043
15.310000	29.938043
15.320000	29.938043
15.330000	29.938043
15.340000	29.938043
15.350000	29.938043
15.360000	29.938043
15.370000	29.938043
15.380000	29.938043
15.390000	29.938043
15.400000	29.938043
15.410000	29.938043
15.420000	29.938043
15.430000	29.938043
15.440000	29.938043
15.450000	29.938043
15.460000	29.938043
15.470000	29.938043
15.480000	29.938043
15.490000	29.938043
15.500000	29.828499
15.510000	29.828499
15.520000	29.828499
15.530000	29.828499
15.540000	29.828499
15.550000	29.828499
15.560000	29.828499
15.570000	29.828499
15.580000	29.828499
15.590000	29.828499
15.600000	29.828499
15.610000	29.828499
15.620000	29.828499
15.630000	29.828499
15.640000	29.828499
15.650000	29.828499
15.660000	29.828499
15.670000	29.828499
15.680000	29.828499
15.690000	29.828499
15.700000	29.828499
15.710000	29.828499
15.720000	29.828499
15.730000	29.828499
15.740000	29.828499
15.750000	29.828499
15.760000	29.828499
15.770000	29.828499
15.780000	29.828499
15.790000	29.828499
15.800000	29.828499
15.810000	29.828499
15.820000	29.828499
15.830000	29.828499
15.840000	29.828499
15.850000	29.828499
15.860000	29.828499
15.870000	29.828499
15.880000	29.828499
15.890000	29.828499
15.900000	29.828499
15.910000	29.828499
15.920000	29.828499
15.930000	29.828499
15.940000	29.828499
15.950000	29.828499
15.960000	29.828499
15.970000	29.828499
15.980000	29.828499
15.990000	29.828499
16.000000	29.724246
16.010000	29.724246
16.020000	29.724246
16.030000	29.724246
16.040000	29.724246
16.050000	29.724246
16.060000	29.724246
16.070000	29.724246
16.080000	29.724246
16.090000	29.724246
16.100000	29.724246
16.110000	29.724246
16.120000	29.724246
16.130000	29.724246
16.140000	29.724246
16.150000	29.724246
16.160000	29.724246
16.170000	29.724246
16.180000	29.724246
16.190000	29.724246
16.200000	29.724246
16.210000	29.724246
16.220000	29.724246
16.230000	29.724246
16.240000	29.724246
16.250000	29.724246
16.260000	29.724246
16.270000	29.724246
16.280000	29.724246
16.290000	29.724246
16.300000	29.724246
16.310000	29.724246
16.320000	29.724246
16.330000	29.724246
16.340000	29.724246
16.350000	29.724246
16.360000	29.724246
16.370000	29.724246
16.380000	29.724246
16.390000	29.724246
16.400000	29.724246
16.410000	29.724246
16.420000	29.724246
16.430000	29.724246
16.440000	29.724246
16.450000	29.724246
16.460000	29.724246
16.470000	29.724246
16.480000	29.724246
16.490000	29.724246
16.500000	29.623242
16.510000	29.623242
16.520000	29.623242
16.530000	29.623242
16.540000	29.623242
16.550000	29.623242
16.560000	29.623242
16.570000	29.623242
16.580000	29.623242
16.590000	29.623242
16.600000	29.623242
16.610000	29.623242
16.620000	29.623242
16.630000	29.623242
16.640000	29.623242
16.650000	29.623242
16.660000	29.623242
16.670000	29.623242
16.680000	29.623242
16.690000	29.623242
16.700000	29.623242
16.710000	29.623242
16.720000	29.623242
16.730000	29.623242
16.740000	29.623242
16.750000	29.623242
16.760000	29.623242
16.770000	29.623242
16.780000	29.623242
16.790000	29.623242
16.800000	29.623242
16.810000	29.623242
16.820000	29.623242
16.830000	29.623242
16.840000	29.623242
16.850000	29.623242
16.860000	29.623242
16.870000	29.623242
16.880000	29.623242
16.890000	29.623242
16.900000	29.623242
16.910000	29.623242
16.920000	29.623242
16.930000	29.623242
16.940000	29.623242
16.950000	29.623242
16.960000	29.623242
16.970000	29.623242
16.980000	29.623242
16.990000	29.623242
17.000000	29.521857
17.010000	29.521857
17.020000	29.521857
17.030000	29.521857
17.040000	29.521857
17.050000	29.521857
17.060000	29.521857
17.070000	29.521857
17.080000	29.521857
17.090000	29.521857
17.100000	29.521857
17.110000	29.521857
17.120000	29.521857
17.130000	29.521857
17.140000	29.521857
17.150000	29.521857
17.160000	29.521857
17.170000	29.521857
17.180000	29.521857
17.190000	29.521857
17.200000	29.521857
17.210000	29.521857
17.220000	29.521857
17.230000	29.521857
17.240000	29.521857
17.250000	29.521857
17.260000	29.521857
17.270000	29.521857
17.280000	29.521857
17.290000	29.521857
17.300000	29.521857
17.310000	29.521857
17.320000	29.521857
17.330000	29.521857
17.340000	29.521857
17.350000	29.521857
17.360000	29.521857
17.370000	29.521857
17.380000	29.521857
17.390000	29.521857
17.400000	29.521857
17.410000	29.521857
17.420000	29.521857
17.430000	29.521857
17.440000	29.521857
17.450000	29.521857
17.460000	29.521857
17.470000	29.521857
17.480000	29.521857
17.490000	29.521857
