LabVIEW Measurement	
Writer_Version	2
Reader_Version	2
Separator	Tab
Decimal_Separator	.
Multi_Headings	No
X_Columns	One
Time_Pref	Absolute
Operator	biomech-dyno
Date	2023/04/27
Time	17:41:55.9338632999999876419
***End_of_Header***	
	
Channels	1	
Samples	10	
Date	2023/04/27	
Time	19:41:45.9333735999999878954	
X_Dimension	Time	
X0	0.0000000000000000E+0	
Delta_X	0.010000	
***End_of_Header***		
X_Value	Untitled	Comment
0.000000	25.162738
0.010000	25.162738
0.020000	25.162738
0.030000	25.162738
0.040000	25.162738
0.050000	25.162738
0.060000	25.162738
0.070000	25.162738
0.080000	25.162738
0.090000	25.162738
0.100000	25.162738
0.110000	25.162738
0.120000	25.162738
0.130000	25.162738
0.140000	25.162738
0.150000	25.162738
0.160000	25.162738
0.170000	25.162738
0.180000	25.162738
0.190000	25.162738
0.200000	25.162738
0.210000	25.162738
0.220000	25.162738
0.230000	25.162738
0.240000	25.162738
0.250000	25.162738
0.260000	25.162738
0.270000	25.162738
0.280000	25.162738
0.290000	25.162738
0.300000	25.162738
0.310000	25.162738
0.320000	25.162738
0.330000	25.162738
0.340000	25.162738
0.350000	25.162738
0.360000	25.162738
0.370000	25.162738
0.380000	25.162738
0.390000	25.162738
0.400000	25.162738
0.410000	25.162738
0.420000	25.162738
0.430000	25.162738
0.440000	25.162738
0.450000	25.162738
0.460000	25.162738
0.470000	25.162738
0.480000	25.162738
0.490000	25.162738
0.500000	25.230112
0.510000	25.230112
0.520000	25.230112
0.530000	25.230112
0.540000	25.230112
0.550000	25.230112
0.560000	25.230112
0.570000	25.230112
0.580000	25.230112
0.590000	25.230112
0.600000	25.230112
0.610000	25.230112
0.620000	25.230112
0.630000	25.230112
0.640000	25.230112
0.650000	25.230112
0.660000	25.230112
0.670000	25.230112
0.680000	25.230112
0.690000	25.230112
0.700000	25.230112
0.710000	25.230112
0.720000	25.230112
0.730000	25.230112
0.740000	25.230112
0.750000	25.230112
0.760000	25.230112
0.770000	25.230112
0.780000	25.230112
0.790000	25.230112
0.800000	25.230112
0.810000	25.230112
0.820000	25.230112
0.830000	25.230112
0.840000	25.230112
0.850000	25.230112
0.860000	25.230112
0.870000	25.230112
0.880000	25.230112
0.890000	25.230112
0.900000	25.230112
0.910000	25.230112
0.920000	25.230112
0.930000	25.230112
0.940000	25.230112
0.950000	25.230112
0.960000	25.230112
0.970000	25.230112
0.980000	25.230112
0.990000	25.230112
1.000000	25.874747
1.010000	25.874747
1.020000	25.874747
1.030000	25.874747
1.040000	25.874747
1.050000	25.874747
1.060000	25.874747
1.070000	25.874747
1.080000	25.874747
1.090000	25.874747
1.100000	25.874747
1.110000	25.874747
1.120000	25.874747
1.130000	25.874747
1.140000	25.874747
1.150000	25.874747
1.160000	25.874747
1.170000	25.874747
1.180000	25.874747
1.190000	25.874747
1.200000	25.874747
1.210000	25.874747
1.220000	25.874747
1.230000	25.874747
1.240000	25.874747
1.250000	25.874747
1.260000	25.874747
1.270000	25.874747
1.280000	25.874747
1.290000	25.874747
1.300000	25.874747
1.310000	25.874747
1.320000	25.874747
1.330000	25.874747
1.340000	25.874747
1.350000	25.874747
1.360000	25.874747
1.370000	25.874747
1.380000	25.874747
1.390000	25.874747
1.400000	25.874747
1.410000	25.874747
1.420000	25.874747
1.430000	25.874747
1.440000	25.874747
1.450000	25.874747
1.460000	25.874747
1.470000	25.874747
1.480000	25.874747
1.490000	25.874747
1.500000	27.387749
1.510000	27.387749
1.520000	27.387749
1.530000	27.387749
1.540000	27.387749
1.550000	27.387749
1.560000	27.387749
1.570000	27.387749
1.580000	27.387749
1.590000	27.387749
1.600000	27.387749
1.610000	27.387749
1.620000	27.387749
1.630000	27.387749
1.640000	27.387749
1.650000	27.387749
1.660000	27.387749
1.670000	27.387749
1.680000	27.387749
1.690000	27.387749
1.700000	27.387749
1.710000	27.387749
1.720000	27.387749
1.730000	27.387749
1.740000	27.387749
1.750000	27.387749
1.760000	27.387749
1.770000	27.387749
1.780000	27.387749
1.790000	27.387749
1.800000	27.387749
1.810000	27.387749
1.820000	27.387749
1.830000	27.387749
1.840000	27.387749
1.850000	27.387749
1.860000	27.387749
1.870000	27.387749
1.880000	27.387749
1.890000	27.387749
1.900000	27.387749
1.910000	27.387749
1.920000	27.387749
1.930000	27.387749
1.940000	27.387749
1.950000	27.387749
1.960000	27.387749
1.970000	27.387749
1.980000	27.387749
1.990000	27.387749
2.000000	29.615989
2.010000	29.615989
2.020000	29.615989
2.030000	29.615989
2.040000	29.615989
2.050000	29.615989
2.060000	29.615989
2.070000	29.615989
2.080000	29.615989
2.090000	29.615989
2.100000	29.615989
2.110000	29.615989
2.120000	29.615989
2.130000	29.615989
2.140000	29.615989
2.150000	29.615989
2.160000	29.615989
2.170000	29.615989
2.180000	29.615989
2.190000	29.615989
2.200000	29.615989
2.210000	29.615989
2.220000	29.615989
2.230000	29.615989
2.240000	29.615989
2.250000	29.615989
2.260000	29.615989
2.270000	29.615989
2.280000	29.615989
2.290000	29.615989
2.300000	29.615989
2.310000	29.615989
2.320000	29.615989
2.330000	29.615989
2.340000	29.615989
2.350000	29.615989
2.360000	29.615989
2.370000	29.615989
2.380000	29.615989
2.390000	29.615989
2.400000	29.615989
2.410000	29.615989
2.420000	29.615989
2.430000	29.615989
2.440000	29.615989
2.450000	29.615989
2.460000	29.615989
2.470000	29.615989
2.480000	29.615989
2.490000	29.615989
2.500000	32.400266
2.510000	32.400266
2.520000	32.400266
2.530000	32.400266
2.540000	32.400266
2.550000	32.400266
2.560000	32.400266
2.570000	32.400266
2.580000	32.400266
2.590000	32.400266
2.600000	32.400266
2.610000	32.400266
2.620000	32.400266
2.630000	32.400266
2.640000	32.400266
2.650000	32.400266
2.660000	32.400266
2.670000	32.400266
2.680000	32.400266
2.690000	32.400266
2.700000	32.400266
2.710000	32.400266
2.720000	32.400266
2.730000	32.400266
2.740000	32.400266
2.750000	32.400266
2.760000	32.400266
2.770000	32.400266
2.780000	32.400266
2.790000	32.400266
2.800000	32.400266
2.810000	32.400266
2.820000	32.400266
2.830000	32.400266
2.840000	32.400266
2.850000	32.400266
2.860000	32.400266
2.870000	32.400266
2.880000	32.400266
2.890000	32.400266
2.900000	32.400266
2.910000	32.400266
2.920000	32.400266
2.930000	32.400266
2.940000	32.400266
2.950000	32.400266
2.960000	32.400266
2.970000	32.400266
2.980000	32.400266
2.990000	32.400266
3.000000	35.447614
3.010000	35.447614
3.020000	35.447614
3.030000	35.447614
3.040000	35.447614
3.050000	35.447614
3.060000	35.447614
3.070000	35.447614
3.080000	35.447614
3.090000	35.447614
3.100000	35.447614
3.110000	35.447614
3.120000	35.447614
3.130000	35.447614
3.140000	35.447614
3.150000	35.447614
3.160000	35.447614
3.170000	35.447614
3.180000	35.447614
3.190000	35.447614
3.200000	35.447614
3.210000	35.447614
3.220000	35.447614
3.230000	35.447614
3.240000	35.447614
3.250000	35.447614
3.260000	35.447614
3.270000	35.447614
3.280000	35.447614
3.290000	35.447614
3.300000	35.447614
3.310000	35.447614
3.320000	35.447614
3.330000	35.447614
3.340000	35.447614
3.350000	35.447614
3.360000	35.447614
3.370000	35.447614
3.380000	35.447614
3.390000	35.447614
3.400000	35.447614
3.410000	35.447614
3.420000	35.447614
3.430000	35.447614
3.440000	35.447614
3.450000	35.447614
3.460000	35.447614
3.470000	35.447614
3.480000	35.447614
3.490000	35.447614
3.500000	38.046659
3.510000	38.046659
3.520000	38.046659
3.530000	38.046659
3.540000	38.046659
3.550000	38.046659
3.560000	38.046659
3.570000	38.046659
3.580000	38.046659
3.590000	38.046659
3.600000	38.046659
3.610000	38.046659
3.620000	38.046659
3.630000	38.046659
3.640000	38.046659
3.650000	38.046659
3.660000	38.046659
3.670000	38.046659
3.680000	38.046659
3.690000	38.046659
3.700000	38.046659
3.710000	38.046659
3.720000	38.046659
3.730000	38.046659
3.740000	38.046659
3.750000	38.046659
3.760000	38.046659
3.770000	38.046659
3.780000	38.046659
3.790000	38.046659
3.800000	38.046659
3.810000	38.046659
3.820000	38.046659
3.830000	38.046659
3.840000	38.046659
3.850000	38.046659
3.860000	38.046659
3.870000	38.046659
3.880000	38.046659
3.890000	38.046659
3.900000	38.046659
3.910000	38.046659
3.920000	38.046659
3.930000	38.046659
3.940000	38.046659
3.950000	38.046659
3.960000	38.046659
3.970000	38.046659
3.980000	38.046659
3.990000	38.046659
4.000000	39.975949
4.010000	39.975949
4.020000	39.975949
4.030000	39.975949
4.040000	39.975949
4.050000	39.975949
4.060000	39.975949
4.070000	39.975949
4.080000	39.975949
4.090000	39.975949
4.100000	39.975949
4.110000	39.975949
4.120000	39.975949
4.130000	39.975949
4.140000	39.975949
4.150000	39.975949
4.160000	39.975949
4.170000	39.975949
4.180000	39.975949
4.190000	39.975949
4.200000	39.975949
4.210000	39.975949
4.220000	39.975949
4.230000	39.975949
4.240000	39.975949
4.250000	39.975949
4.260000	39.975949
4.270000	39.975949
4.280000	39.975949
4.290000	39.975949
4.300000	39.975949
4.310000	39.975949
4.320000	39.975949
4.330000	39.975949
4.340000	39.975949
4.350000	39.975949
4.360000	39.975949
4.370000	39.975949
4.380000	39.975949
4.390000	39.975949
4.400000	39.975949
4.410000	39.975949
4.420000	39.975949
4.430000	39.975949
4.440000	39.975949
4.450000	39.975949
4.460000	39.975949
4.470000	39.975949
4.480000	39.975949
4.490000	39.975949
4.500000	41.328850
4.510000	41.328850
4.520000	41.328850
4.530000	41.328850
4.540000	41.328850
4.550000	41.328850
4.560000	41.328850
4.570000	41.328850
4.580000	41.328850
4.590000	41.328850
4.600000	41.328850
4.610000	41.328850
4.620000	41.328850
4.630000	41.328850
4.640000	41.328850
4.650000	41.328850
4.660000	41.328850
4.670000	41.328850
4.680000	41.328850
4.690000	41.328850
4.700000	41.328850
4.710000	41.328850
4.720000	41.328850
4.730000	41.328850
4.740000	41.328850
4.750000	41.328850
4.760000	41.328850
4.770000	41.328850
4.780000	41.328850
4.790000	41.328850
4.800000	41.328850
4.810000	41.328850
4.820000	41.328850
4.830000	41.328850
4.840000	41.328850
4.850000	41.328850
4.860000	41.328850
4.870000	41.328850
4.880000	41.328850
4.890000	41.328850
4.900000	41.328850
4.910000	41.328850
4.920000	41.328850
4.930000	41.328850
4.940000	41.328850
4.950000	41.328850
4.960000	41.328850
4.970000	41.328850
4.980000	41.328850
4.990000	41.328850
5.000000	42.274468
5.010000	42.274468
5.020000	42.274468
5.030000	42.274468
5.040000	42.274468
5.050000	42.274468
5.060000	42.274468
5.070000	42.274468
5.080000	42.274468
5.090000	42.274468
5.100000	42.274468
5.110000	42.274468
5.120000	42.274468
5.130000	42.274468
5.140000	42.274468
5.150000	42.274468
5.160000	42.274468
5.170000	42.274468
5.180000	42.274468
5.190000	42.274468
5.200000	42.274468
5.210000	42.274468
5.220000	42.274468
5.230000	42.274468
5.240000	42.274468
5.250000	42.274468
5.260000	42.274468
5.270000	42.274468
5.280000	42.274468
5.290000	42.274468
5.300000	42.274468
5.310000	42.274468
5.320000	42.274468
5.330000	42.274468
5.340000	42.274468
5.350000	42.274468
5.360000	42.274468
5.370000	42.274468
5.380000	42.274468
5.390000	42.274468
5.400000	42.274468
5.410000	42.274468
5.420000	42.274468
5.430000	42.274468
5.440000	42.274468
5.450000	42.274468
5.460000	42.274468
5.470000	42.274468
5.480000	42.274468
5.490000	42.274468
5.500000	42.911764
5.510000	42.911764
5.520000	42.911764
5.530000	42.911764
5.540000	42.911764
5.550000	42.911764
5.560000	42.911764
5.570000	42.911764
5.580000	42.911764
5.590000	42.911764
5.600000	42.911764
5.610000	42.911764
5.620000	42.911764
5.630000	42.911764
5.640000	42.911764
5.650000	42.911764
5.660000	42.911764
5.670000	42.911764
5.680000	42.911764
5.690000	42.911764
5.700000	42.911764
5.710000	42.911764
5.720000	42.911764
5.730000	42.911764
5.740000	42.911764
5.750000	42.911764
5.760000	42.911764
5.770000	42.911764
5.780000	42.911764
5.790000	42.911764
5.800000	42.911764
5.810000	42.911764
5.820000	42.911764
5.830000	42.911764
5.840000	42.911764
5.850000	42.911764
5.860000	42.911764
5.870000	42.911764
5.880000	42.911764
5.890000	42.911764
5.900000	42.911764
5.910000	42.911764
5.920000	42.911764
5.930000	42.911764
5.940000	42.911764
5.950000	42.911764
5.960000	42.911764
5.970000	42.911764
5.980000	42.911764
5.990000	42.911764
6.000000	43.307608
6.010000	43.307608
6.020000	43.307608
6.030000	43.307608
6.040000	43.307608
6.050000	43.307608
6.060000	43.307608
6.070000	43.307608
6.080000	43.307608
6.090000	43.307608
6.100000	43.307608
6.110000	43.307608
6.120000	43.307608
6.130000	43.307608
6.140000	43.307608
6.150000	43.307608
6.160000	43.307608
6.170000	43.307608
6.180000	43.307608
6.190000	43.307608
6.200000	43.307608
6.210000	43.307608
6.220000	43.307608
6.230000	43.307608
6.240000	43.307608
6.250000	43.307608
6.260000	43.307608
6.270000	43.307608
6.280000	43.307608
6.290000	43.307608
6.300000	43.307608
6.310000	43.307608
6.320000	43.307608
6.330000	43.307608
6.340000	43.307608
6.350000	43.307608
6.360000	43.307608
6.370000	43.307608
6.380000	43.307608
6.390000	43.307608
6.400000	43.307608
6.410000	43.307608
6.420000	43.307608
6.430000	43.307608
6.440000	43.307608
6.450000	43.307608
6.460000	43.307608
6.470000	43.307608
6.480000	43.307608
6.490000	43.307608
6.500000	43.510856
6.510000	43.510856
6.520000	43.510856
6.530000	43.510856
6.540000	43.510856
6.550000	43.510856
6.560000	43.510856
6.570000	43.510856
6.580000	43.510856
6.590000	43.510856
6.600000	43.510856
6.610000	43.510856
6.620000	43.510856
6.630000	43.510856
6.640000	43.510856
6.650000	43.510856
6.660000	43.510856
6.670000	43.510856
6.680000	43.510856
6.690000	43.510856
6.700000	43.510856
6.710000	43.510856
6.720000	43.510856
6.730000	43.510856
6.740000	43.510856
6.750000	43.510856
6.760000	43.510856
6.770000	43.510856
6.780000	43.510856
6.790000	43.510856
6.800000	43.510856
6.810000	43.510856
6.820000	43.510856
6.830000	43.510856
6.840000	43.510856
6.850000	43.510856
6.860000	43.510856
6.870000	43.510856
6.880000	43.510856
6.890000	43.510856
6.900000	43.510856
6.910000	43.510856
6.920000	43.510856
6.930000	43.510856
6.940000	43.510856
6.950000	43.510856
6.960000	43.510856
6.970000	43.510856
6.980000	43.510856
6.990000	43.510856
7.000000	43.575097
7.010000	43.575097
7.020000	43.575097
7.030000	43.575097
7.040000	43.575097
7.050000	43.575097
7.060000	43.575097
7.070000	43.575097
7.080000	43.575097
7.090000	43.575097
7.100000	43.575097
7.110000	43.575097
7.120000	43.575097
7.130000	43.575097
7.140000	43.575097
7.150000	43.575097
7.160000	43.575097
7.170000	43.575097
7.180000	43.575097
7.190000	43.575097
7.200000	43.575097
7.210000	43.575097
7.220000	43.575097
7.230000	43.575097
7.240000	43.575097
7.250000	43.575097
7.260000	43.575097
7.270000	43.575097
7.280000	43.575097
7.290000	43.575097
7.300000	43.575097
7.310000	43.575097
7.320000	43.575097
7.330000	43.575097
7.340000	43.575097
7.350000	43.575097
7.360000	43.575097
7.370000	43.575097
7.380000	43.575097
7.390000	43.575097
7.400000	43.575097
7.410000	43.575097
7.420000	43.575097
7.430000	43.575097
7.440000	43.575097
7.450000	43.575097
7.460000	43.575097
7.470000	43.575097
7.480000	43.575097
7.490000	43.575097
7.500000	43.541126
7.510000	43.541126
7.520000	43.541126
7.530000	43.541126
7.540000	43.541126
7.550000	43.541126
7.560000	43.541126
7.570000	43.541126
7.580000	43.541126
7.590000	43.541126
7.600000	43.541126
7.610000	43.541126
7.620000	43.541126
7.630000	43.541126
7.640000	43.541126
7.650000	43.541126
7.660000	43.541126
7.670000	43.541126
7.680000	43.541126
7.690000	43.541126
7.700000	43.541126
7.710000	43.541126
7.720000	43.541126
7.730000	43.541126
7.740000	43.541126
7.750000	43.541126
7.760000	43.541126
7.770000	43.541126
7.780000	43.541126
7.790000	43.541126
7.800000	43.541126
7.810000	43.541126
7.820000	43.541126
7.830000	43.541126
7.840000	43.541126
7.850000	43.541126
7.860000	43.541126
7.870000	43.541126
7.880000	43.541126
7.890000	43.541126
7.900000	43.541126
7.910000	43.541126
7.920000	43.541126
7.930000	43.541126
7.940000	43.541126
7.950000	43.541126
7.960000	43.541126
7.970000	43.541126
7.980000	43.541126
7.990000	43.541126
8.000000	43.431073
8.010000	43.431073
8.020000	43.431073
8.030000	43.431073
8.040000	43.431073
8.050000	43.431073
8.060000	43.431073
8.070000	43.431073
8.080000	43.431073
8.090000	43.431073
8.100000	43.431073
8.110000	43.431073
8.120000	43.431073
8.130000	43.431073
8.140000	43.431073
8.150000	43.431073
8.160000	43.431073
8.170000	43.431073
8.180000	43.431073
8.190000	43.431073
8.200000	43.431073
8.210000	43.431073
8.220000	43.431073
8.230000	43.431073
8.240000	43.431073
8.250000	43.431073
8.260000	43.431073
8.270000	43.431073
8.280000	43.431073
8.290000	43.431073
8.300000	43.431073
8.310000	43.431073
8.320000	43.431073
8.330000	43.431073
8.340000	43.431073
8.350000	43.431073
8.360000	43.431073
8.370000	43.431073
8.380000	43.431073
8.390000	43.431073
8.400000	43.431073
8.410000	43.431073
8.420000	43.431073
8.430000	43.431073
8.440000	43.431073
8.450000	43.431073
8.460000	43.431073
8.470000	43.431073
8.480000	43.431073
8.490000	43.431073
8.500000	43.261309
8.510000	43.261309
8.520000	43.261309
8.530000	43.261309
8.540000	43.261309
8.550000	43.261309
8.560000	43.261309
8.570000	43.261309
8.580000	43.261309
8.590000	43.261309
8.600000	43.261309
8.610000	43.261309
8.620000	43.261309
8.630000	43.261309
8.640000	43.261309
8.650000	43.261309
8.660000	43.261309
8.670000	43.261309
8.680000	43.261309
8.690000	43.261309
8.700000	43.261309
8.710000	43.261309
8.720000	43.261309
8.730000	43.261309
8.740000	43.261309
8.750000	43.261309
8.760000	43.261309
8.770000	43.261309
8.780000	43.261309
8.790000	43.261309
8.800000	43.261309
8.810000	43.261309
8.820000	43.261309
8.830000	43.261309
8.840000	43.261309
8.850000	43.261309
8.860000	43.261309
8.870000	43.261309
8.880000	43.261309
8.890000	43.261309
8.900000	43.261309
8.910000	43.261309
8.920000	43.261309
8.930000	43.261309
8.940000	43.261309
8.950000	43.261309
8.960000	43.261309
8.970000	43.261309
8.980000	43.261309
8.990000	43.261309
9.000000	43.047645
9.010000	43.047645
9.020000	43.047645
9.030000	43.047645
9.040000	43.047645
9.050000	43.047645
9.060000	43.047645
9.070000	43.047645
9.080000	43.047645
9.090000	43.047645
9.100000	43.047645
9.110000	43.047645
9.120000	43.047645
9.130000	43.047645
9.140000	43.047645
9.150000	43.047645
9.160000	43.047645
9.170000	43.047645
9.180000	43.047645
9.190000	43.047645
9.200000	43.047645
9.210000	43.047645
9.220000	43.047645
9.230000	43.047645
9.240000	43.047645
9.250000	43.047645
9.260000	43.047645
9.270000	43.047645
9.280000	43.047645
9.290000	43.047645
9.300000	43.047645
9.310000	43.047645
9.320000	43.047645
9.330000	43.047645
9.340000	43.047645
9.350000	43.047645
9.360000	43.047645
9.370000	43.047645
9.380000	43.047645
9.390000	43.047645
9.400000	43.047645
9.410000	43.047645
9.420000	43.047645
9.430000	43.047645
9.440000	43.047645
9.450000	43.047645
9.460000	43.047645
9.470000	43.047645
9.480000	43.047645
9.490000	43.047645
9.500000	42.802329
9.510000	42.802329
9.520000	42.802329
9.530000	42.802329
9.540000	42.802329
9.550000	42.802329
9.560000	42.802329
9.570000	42.802329
9.580000	42.802329
9.590000	42.802329
9.600000	42.802329
9.610000	42.802329
9.620000	42.802329
9.630000	42.802329
9.640000	42.802329
9.650000	42.802329
9.660000	42.802329
9.670000	42.802329
9.680000	42.802329
9.690000	42.802329
9.700000	42.802329
9.710000	42.802329
9.720000	42.802329
9.730000	42.802329
9.740000	42.802329
9.750000	42.802329
9.760000	42.802329
9.770000	42.802329
9.780000	42.802329
9.790000	42.802329
9.800000	42.802329
9.810000	42.802329
9.820000	42.802329
9.830000	42.802329
9.840000	42.802329
9.850000	42.802329
9.860000	42.802329
9.870000	42.802329
9.880000	42.802329
9.890000	42.802329
9.900000	42.802329
9.910000	42.802329
9.920000	42.802329
9.930000	42.802329
9.940000	42.802329
9.950000	42.802329
9.960000	42.802329
9.970000	42.802329
9.980000	42.802329
9.990000	42.802329
10.000000	42.523077
10.010000	42.523077
10.020000	42.523077
10.030000	42.523077
10.040000	42.523077
10.050000	42.523077
10.060000	42.523077
10.070000	42.523077
10.080000	42.523077
10.090000	42.523077
10.100000	42.523077
10.110000	42.523077
10.120000	42.523077
10.130000	42.523077
10.140000	42.523077
10.150000	42.523077
10.160000	42.523077
10.170000	42.523077
10.180000	42.523077
10.190000	42.523077
10.200000	42.523077
10.210000	42.523077
10.220000	42.523077
10.230000	42.523077
10.240000	42.523077
10.250000	42.523077
10.260000	42.523077
10.270000	42.523077
10.280000	42.523077
10.290000	42.523077
10.300000	42.523077
10.310000	42.523077
10.320000	42.523077
10.330000	42.523077
10.340000	42.523077
10.350000	42.523077
10.360000	42.523077
10.370000	42.523077
10.380000	42.523077
10.390000	42.523077
10.400000	42.523077
10.410000	42.523077
10.420000	42.523077
10.430000	42.523077
10.440000	42.523077
10.450000	42.523077
10.460000	42.523077
10.470000	42.523077
10.480000	42.523077
10.490000	42.523077
10.500000	42.227850
10.510000	42.227850
10.520000	42.227850
10.530000	42.227850
10.540000	42.227850
10.550000	42.227850
10.560000	42.227850
10.570000	42.227850
10.580000	42.227850
10.590000	42.227850
10.600000	42.227850
10.610000	42.227850
10.620000	42.227850
10.630000	42.227850
10.640000	42.227850
10.650000	42.227850
10.660000	42.227850
10.670000	42.227850
10.680000	42.227850
10.690000	42.227850
10.700000	42.227850
10.710000	42.227850
10.720000	42.227850
10.730000	42.227850
10.740000	42.227850
10.750000	42.227850
10.760000	42.227850
10.770000	42.227850
10.780000	42.227850
10.790000	42.227850
10.800000	42.227850
10.810000	42.227850
10.820000	42.227850
10.830000	42.227850
10.840000	42.227850
10.850000	42.227850
10.860000	42.227850
10.870000	42.227850
10.880000	42.227850
10.890000	42.227850
10.900000	42.227850
10.910000	42.227850
10.920000	42.227850
10.930000	42.227850
10.940000	42.227850
10.950000	42.227850
10.960000	42.227850
10.970000	42.227850
10.980000	42.227850
10.990000	42.227850
11.000000	41.923842
11.010000	41.923842
11.020000	41.923842
11.030000	41.923842
11.040000	41.923842
11.050000	41.923842
11.060000	41.923842
11.070000	41.923842
11.080000	41.923842
11.090000	41.923842
11.100000	41.923842
11.110000	41.923842
11.120000	41.923842
11.130000	41.923842
11.140000	41.923842
11.150000	41.923842
11.160000	41.923842
11.170000	41.923842
11.180000	41.923842
11.190000	41.923842
11.200000	41.923842
11.210000	41.923842
11.220000	41.923842
11.230000	41.923842
11.240000	41.923842
11.250000	41.923842
11.260000	41.923842
11.270000	41.923842
11.280000	41.923842
11.290000	41.923842
11.300000	41.923842
11.310000	41.923842
11.320000	41.923842
11.330000	41.923842
11.340000	41.923842
11.350000	41.923842
11.360000	41.923842
11.370000	41.923842
11.380000	41.923842
11.390000	41.923842
11.400000	41.923842
11.410000	41.923842
11.420000	41.923842
11.430000	41.923842
11.440000	41.923842
11.450000	41.923842
11.460000	41.923842
11.470000	41.923842
11.480000	41.923842
11.490000	41.923842
11.500000	41.618043
11.510000	41.618043
11.520000	41.618043
11.530000	41.618043
11.540000	41.618043
11.550000	41.618043
11.560000	41.618043
11.570000	41.618043
11.580000	41.618043
11.590000	41.618043
11.600000	41.618043
11.610000	41.618043
11.620000	41.618043
11.630000	41.618043
11.640000	41.618043
11.650000	41.618043
11.660000	41.618043
11.670000	41.618043
11.680000	41.618043
11.690000	41.618043
11.700000	41.618043
11.710000	41.618043
11.720000	41.618043
11.730000	41.618043
11.740000	41.618043
11.750000	41.618043
11.760000	41.618043
11.770000	41.618043
11.780000	41.618043
11.790000	41.618043
11.800000	41.618043
11.810000	41.618043
11.820000	41.618043
11.830000	41.618043
11.840000	41.618043
11.850000	41.618043
11.860000	41.618043
11.870000	41.618043
11.880000	41.618043
11.890000	41.618043
11.900000	41.618043
11.910000	41.618043
11.920000	41.618043
11.930000	41.618043
11.940000	41.618043
11.950000	41.618043
11.960000	41.618043
11.970000	41.618043
11.980000	41.618043
11.990000	41.618043
12.000000	41.307528
12.010000	41.307528
12.020000	41.307528
12.030000	41.307528
12.040000	41.307528
12.050000	41.307528
12.060000	41.307528
12.070000	41.307528
12.080000	41.307528
12.090000	41.307528
12.100000	41.307528
12.110000	41.307528
12.120000	41.307528
12.130000	41.307528
12.140000	41.307528
12.150000	41.307528
12.160000	41.307528
12.170000	41.307528
12.180000	41.307528
12.190000	41.307528
12.200000	41.307528
12.210000	41.307528
12.220000	41.307528
12.230000	41.307528
12.240000	41.307528
12.250000	41.307528
12.260000	41.307528
12.270000	41.307528
12.280000	41.307528
12.290000	41.307528
12.300000	41.307528
12.310000	41.307528
12.320000	41.307528
12.330000	41.307528
12.340000	41.307528
12.350000	41.307528
12.360000	41.307528
12.370000	41.307528
12.380000	41.307528
12.390000	41.307528
12.400000	41.307528
12.410000	41.307528
12.420000	41.307528
12.430000	41.307528
12.440000	41.307528
12.450000	41.307528
12.460000	41.307528
12.470000	41.307528
12.480000	41.307528
12.490000	41.307528
12.500000	40.997140
12.510000	40.997140
12.520000	40.997140
12.530000	40.997140
12.540000	40.997140
12.550000	40.997140
12.560000	40.997140
12.570000	40.997140
12.580000	40.997140
12.590000	40.997140
12.600000	40.997140
12.610000	40.997140
12.620000	40.997140
12.630000	40.997140
12.640000	40.997140
12.650000	40.997140
12.660000	40.997140
12.670000	40.997140
12.680000	40.997140
12.690000	40.997140
12.700000	40.997140
12.710000	40.997140
12.720000	40.997140
12.730000	40.997140
12.740000	40.997140
12.750000	40.997140
12.760000	40.997140
12.770000	40.997140
12.780000	40.997140
12.790000	40.997140
12.800000	40.997140
12.810000	40.997140
12.820000	40.997140
12.830000	40.997140
12.840000	40.997140
12.850000	40.997140
12.860000	40.997140
12.870000	40.997140
12.880000	40.997140
12.890000	40.997140
12.900000	40.997140
12.910000	40.997140
12.920000	40.997140
12.930000	40.997140
12.940000	40.997140
12.950000	40.997140
12.960000	40.997140
12.970000	40.997140
12.980000	40.997140
12.990000	40.997140
13.000000	40.688122
13.010000	40.688122
13.020000	40.688122
13.030000	40.688122
13.040000	40.688122
13.050000	40.688122
13.060000	40.688122
13.070000	40.688122
13.080000	40.688122
13.090000	40.688122
13.100000	40.688122
13.110000	40.688122
13.120000	40.688122
13.130000	40.688122
13.140000	40.688122
13.150000	40.688122
13.160000	40.688122
13.170000	40.688122
13.180000	40.688122
13.190000	40.688122
13.200000	40.688122
13.210000	40.688122
13.220000	40.688122
13.230000	40.688122
13.240000	40.688122
13.250000	40.688122
13.260000	40.688122
13.270000	40.688122
13.280000	40.688122
13.290000	40.688122
13.300000	40.688122
13.310000	40.688122
13.320000	40.688122
13.330000	40.688122
13.340000	40.688122
13.350000	40.688122
13.360000	40.688122
13.370000	40.688122
13.380000	40.688122
13.390000	40.688122
13.400000	40.688122
13.410000	40.688122
13.420000	40.688122
13.430000	40.688122
13.440000	40.688122
13.450000	40.688122
13.460000	40.688122
13.470000	40.688122
13.480000	40.688122
13.490000	40.688122
13.500000	40.379678
13.510000	40.379678
13.520000	40.379678
13.530000	40.379678
13.540000	40.379678
13.550000	40.379678
13.560000	40.379678
13.570000	40.379678
13.580000	40.379678
13.590000	40.379678
13.600000	40.379678
13.610000	40.379678
13.620000	40.379678
13.630000	40.379678
13.640000	40.379678
13.650000	40.379678
13.660000	40.379678
13.670000	40.379678
13.680000	40.379678
13.690000	40.379678
13.700000	40.379678
13.710000	40.379678
13.720000	40.379678
13.730000	40.379678
13.740000	40.379678
13.750000	40.379678
13.760000	40.379678
13.770000	40.379678
13.780000	40.379678
13.790000	40.379678
13.800000	40.379678
13.810000	40.379678
13.820000	40.379678
13.830000	40.379678
13.840000	40.379678
13.850000	40.379678
13.860000	40.379678
13.870000	40.379678
13.880000	40.379678
13.890000	40.379678
13.900000	40.379678
13.910000	40.379678
13.920000	40.379678
13.930000	40.379678
13.940000	40.379678
13.950000	40.379678
13.960000	40.379678
13.970000	40.379678
13.980000	40.379678
13.990000	40.379678
14.000000	40.073662
14.010000	40.073662
14.020000	40.073662
14.030000	40.073662
14.040000	40.073662
14.050000	40.073662
14.060000	40.073662
14.070000	40.073662
14.080000	40.073662
14.090000	40.073662
14.100000	40.073662
14.110000	40.073662
14.120000	40.073662
14.130000	40.073662
14.140000	40.073662
14.150000	40.073662
14.160000	40.073662
14.170000	40.073662
14.180000	40.073662
14.190000	40.073662
14.200000	40.073662
14.210000	40.073662
14.220000	40.073662
14.230000	40.073662
14.240000	40.073662
14.250000	40.073662
14.260000	40.073662
14.270000	40.073662
14.280000	40.073662
14.290000	40.073662
14.300000	40.073662
14.310000	40.073662
14.320000	40.073662
14.330000	40.073662
14.340000	40.073662
14.350000	40.073662
14.360000	40.073662
14.370000	40.073662
14.380000	40.073662
14.390000	40.073662
14.400000	40.073662
14.410000	40.073662
14.420000	40.073662
14.430000	40.073662
14.440000	40.073662
14.450000	40.073662
14.460000	40.073662
14.470000	40.073662
14.480000	40.073662
14.490000	40.073662
14.500000	39.770862
14.510000	39.770862
14.520000	39.770862
14.530000	39.770862
14.540000	39.770862
14.550000	39.770862
14.560000	39.770862
14.570000	39.770862
14.580000	39.770862
14.590000	39.770862
14.600000	39.770862
14.610000	39.770862
14.620000	39.770862
14.630000	39.770862
14.640000	39.770862
14.650000	39.770862
14.660000	39.770862
14.670000	39.770862
14.680000	39.770862
14.690000	39.770862
14.700000	39.770862
14.710000	39.770862
14.720000	39.770862
14.730000	39.770862
14.740000	39.770862
14.750000	39.770862
14.760000	39.770862
14.770000	39.770862
14.780000	39.770862
14.790000	39.770862
14.800000	39.770862
14.810000	39.770862
14.820000	39.770862
14.830000	39.770862
14.840000	39.770862
14.850000	39.770862
14.860000	39.770862
14.870000	39.770862
14.880000	39.770862
14.890000	39.770862
14.900000	39.770862
14.910000	39.770862
14.920000	39.770862
14.930000	39.770862
14.940000	39.770862
14.950000	39.770862
14.960000	39.770862
14.970000	39.770862
14.980000	39.770862
14.990000	39.770862
15.000000	39.472807
15.010000	39.472807
15.020000	39.472807
15.030000	39.472807
15.040000	39.472807
15.050000	39.472807
15.060000	39.472807
15.070000	39.472807
15.080000	39.472807
15.090000	39.472807
15.100000	39.472807
15.110000	39.472807
15.120000	39.472807
15.130000	39.472807
15.140000	39.472807
15.150000	39.472807
15.160000	39.472807
15.170000	39.472807
15.180000	39.472807
15.190000	39.472807
15.200000	39.472807
15.210000	39.472807
15.220000	39.472807
15.230000	39.472807
15.240000	39.472807
15.250000	39.472807
15.260000	39.472807
15.270000	39.472807
15.280000	39.472807
15.290000	39.472807
15.300000	39.472807
15.310000	39.472807
15.320000	39.472807
15.330000	39.472807
15.340000	39.472807
15.350000	39.472807
15.360000	39.472807
15.370000	39.472807
15.380000	39.472807
15.390000	39.472807
15.400000	39.472807
15.410000	39.472807
15.420000	39.472807
15.430000	39.472807
15.440000	39.472807
15.450000	39.472807
15.460000	39.472807
15.470000	39.472807
15.480000	39.472807
15.490000	39.472807
15.500000	39.180098
15.510000	39.180098
15.520000	39.180098
15.530000	39.180098
15.540000	39.180098
15.550000	39.180098
15.560000	39.180098
15.570000	39.180098
15.580000	39.180098
15.590000	39.180098
15.600000	39.180098
15.610000	39.180098
15.620000	39.180098
15.630000	39.180098
15.640000	39.180098
15.650000	39.180098
15.660000	39.180098
15.670000	39.180098
15.680000	39.180098
15.690000	39.180098
15.700000	39.180098
15.710000	39.180098
15.720000	39.180098
15.730000	39.180098
15.740000	39.180098
15.750000	39.180098
15.760000	39.180098
15.770000	39.180098
15.780000	39.180098
15.790000	39.180098
15.800000	39.180098
15.810000	39.180098
15.820000	39.180098
15.830000	39.180098
15.840000	39.180098
15.850000	39.180098
15.860000	39.180098
15.870000	39.180098
15.880000	39.180098
15.890000	39.180098
15.900000	39.180098
15.910000	39.180098
15.920000	39.180098
15.930000	39.180098
15.940000	39.180098
15.950000	39.180098
15.960000	39.180098
15.970000	39.180098
15.980000	39.180098
15.990000	39.180098
16.000000	38.897674
16.010000	38.897674
16.020000	38.897674
16.030000	38.897674
16.040000	38.897674
16.050000	38.897674
16.060000	38.897674
16.070000	38.897674
16.080000	38.897674
16.090000	38.897674
16.100000	38.897674
16.110000	38.897674
16.120000	38.897674
16.130000	38.897674
16.140000	38.897674
16.150000	38.897674
16.160000	38.897674
16.170000	38.897674
16.180000	38.897674
16.190000	38.897674
16.200000	38.897674
16.210000	38.897674
16.220000	38.897674
16.230000	38.897674
16.240000	38.897674
16.250000	38.897674
16.260000	38.897674
16.270000	38.897674
16.280000	38.897674
16.290000	38.897674
16.300000	38.897674
16.310000	38.897674
16.320000	38.897674
16.330000	38.897674
16.340000	38.897674
16.350000	38.897674
16.360000	38.897674
16.370000	38.897674
16.380000	38.897674
16.390000	38.897674
16.400000	38.897674
16.410000	38.897674
16.420000	38.897674
16.430000	38.897674
16.440000	38.897674
16.450000	38.897674
16.460000	38.897674
16.470000	38.897674
16.480000	38.897674
16.490000	38.897674
16.500000	38.620306
16.510000	38.620306
16.520000	38.620306
16.530000	38.620306
16.540000	38.620306
16.550000	38.620306
16.560000	38.620306
16.570000	38.620306
16.580000	38.620306
16.590000	38.620306
16.600000	38.620306
16.610000	38.620306
16.620000	38.620306
16.630000	38.620306
16.640000	38.620306
16.650000	38.620306
16.660000	38.620306
16.670000	38.620306
16.680000	38.620306
16.690000	38.620306
16.700000	38.620306
16.710000	38.620306
16.720000	38.620306
16.730000	38.620306
16.740000	38.620306
16.750000	38.620306
16.760000	38.620306
16.770000	38.620306
16.780000	38.620306
16.790000	38.620306
16.800000	38.620306
16.810000	38.620306
16.820000	38.620306
16.830000	38.620306
16.840000	38.620306
16.850000	38.620306
16.860000	38.620306
16.870000	38.620306
16.880000	38.620306
16.890000	38.620306
16.900000	38.620306
16.910000	38.620306
16.920000	38.620306
16.930000	38.620306
16.940000	38.620306
16.950000	38.620306
16.960000	38.620306
16.970000	38.620306
16.980000	38.620306
16.990000	38.620306
17.000000	38.349080
17.010000	38.349080
17.020000	38.349080
17.030000	38.349080
17.040000	38.349080
17.050000	38.349080
17.060000	38.349080
17.070000	38.349080
17.080000	38.349080
17.090000	38.349080
17.100000	38.349080
17.110000	38.349080
17.120000	38.349080
17.130000	38.349080
17.140000	38.349080
17.150000	38.349080
17.160000	38.349080
17.170000	38.349080
17.180000	38.349080
17.190000	38.349080
17.200000	38.349080
17.210000	38.349080
17.220000	38.349080
17.230000	38.349080
17.240000	38.349080
17.250000	38.349080
17.260000	38.349080
17.270000	38.349080
17.280000	38.349080
17.290000	38.349080
17.300000	38.349080
17.310000	38.349080
17.320000	38.349080
17.330000	38.349080
17.340000	38.349080
17.350000	38.349080
17.360000	38.349080
17.370000	38.349080
17.380000	38.349080
17.390000	38.349080
17.400000	38.349080
17.410000	38.349080
17.420000	38.349080
17.430000	38.349080
17.440000	38.349080
17.450000	38.349080
17.460000	38.349080
17.470000	38.349080
17.480000	38.349080
17.490000	38.349080
