LabVIEW Measurement	
Writer_Version	2
Reader_Version	2
Separator	Tab
Decimal_Separator	.
Multi_Headings	No
X_Columns	One
Time_Pref	Absolute
Operator	biomech-dyno
Date	2023/04/27
Time	17:41:55.9338632999999876419
***End_of_Header***	
	
Channels	1	
Samples	10	
Date	2023/04/27	
Time	19:52:33.1782293999998611105	
X_Dimension	Time	
X0	0.0000000000000000E+0	
Delta_X	0.010000	
***End_of_Header***		
X_Value	Untitled	Comment
0.000000	25.174850
0.010000	25.174850
0.020000	25.174850
0.030000	25.174850
0.040000	25.174850
0.050000	25.174850
0.060000	25.174850
0.070000	25.174850
0.080000	25.174850
0.090000	25.174850
0.100000	25.174850
0.110000	25.174850
0.120000	25.174850
0.130000	25.174850
0.140000	25.174850
0.150000	25.174850
0.160000	25.174850
0.170000	25.174850
0.180000	25.174850
0.190000	25.174850
0.200000	25.174850
0.210000	25.174850
0.220000	25.174850
0.230000	25.174850
0.240000	25.174850
0.250000	25.174850
0.260000	25.174850
0.270000	25.174850
0.280000	25.174850
0.290000	25.174850
0.300000	25.174850
0.310000	25.174850
0.320000	25.174850
0.330000	25.174850
0.340000	25.174850
0.350000	25.174850
0.360000	25.174850
0.370000	25.174850
0.380000	25.174850
0.390000	25.174850
0.400000	25.174850
0.410000	25.174850
0.420000	25.174850
0.430000	25.174850
0.440000	25.174850
0.450000	25.174850
0.460000	25.174850
0.470000	25.174850
0.480000	25.174850
0.490000	25.174850
0.500000	25.245992
0.510000	25.245992
0.520000	25.245992
0.530000	25.245992
0.540000	25.245992
0.550000	25.245992
0.560000	25.245992
0.570000	25.245992
0.580000	25.245992
0.590000	25.245992
0.600000	25.245992
0.610000	25.245992
0.620000	25.245992
0.630000	25.245992
0.640000	25.245992
0.650000	25.245992
0.660000	25.245992
0.670000	25.245992
0.680000	25.245992
0.690000	25.245992
0.700000	25.245992
0.710000	25.245992
0.720000	25.245992
0.730000	25.245992
0.740000	25.245992
0.750000	25.245992
0.760000	25.245992
0.770000	25.245992
0.780000	25.245992
0.790000	25.245992
0.800000	25.245992
0.810000	25.245992
0.820000	25.245992
0.830000	25.245992
0.840000	25.245992
0.850000	25.245992
0.860000	25.245992
0.870000	25.245992
0.880000	25.245992
0.890000	25.245992
0.900000	25.245992
0.910000	25.245992
0.920000	25.245992
0.930000	25.245992
0.940000	25.245992
0.950000	25.245992
0.960000	25.245992
0.970000	25.245992
0.980000	25.245992
0.990000	25.245992
1.000000	25.934001
1.010000	25.934001
1.020000	25.934001
1.030000	25.934001
1.040000	25.934001
1.050000	25.934001
1.060000	25.934001
1.070000	25.934001
1.080000	25.934001
1.090000	25.934001
1.100000	25.934001
1.110000	25.934001
1.120000	25.934001
1.130000	25.934001
1.140000	25.934001
1.150000	25.934001
1.160000	25.934001
1.170000	25.934001
1.180000	25.934001
1.190000	25.934001
1.200000	25.934001
1.210000	25.934001
1.220000	25.934001
1.230000	25.934001
1.240000	25.934001
1.250000	25.934001
1.260000	25.934001
1.270000	25.934001
1.280000	25.934001
1.290000	25.934001
1.300000	25.934001
1.310000	25.934001
1.320000	25.934001
1.330000	25.934001
1.340000	25.934001
1.350000	25.934001
1.360000	25.934001
1.370000	25.934001
1.380000	25.934001
1.390000	25.934001
1.400000	25.934001
1.410000	25.934001
1.420000	25.934001
1.430000	25.934001
1.440000	25.934001
1.450000	25.934001
1.460000	25.934001
1.470000	25.934001
1.480000	25.934001
1.490000	25.934001
1.500000	27.519403
1.510000	27.519403
1.520000	27.519403
1.530000	27.519403
1.540000	27.519403
1.550000	27.519403
1.560000	27.519403
1.570000	27.519403
1.580000	27.519403
1.590000	27.519403
1.600000	27.519403
1.610000	27.519403
1.620000	27.519403
1.630000	27.519403
1.640000	27.519403
1.650000	27.519403
1.660000	27.519403
1.670000	27.519403
1.680000	27.519403
1.690000	27.519403
1.700000	27.519403
1.710000	27.519403
1.720000	27.519403
1.730000	27.519403
1.740000	27.519403
1.750000	27.519403
1.760000	27.519403
1.770000	27.519403
1.780000	27.519403
1.790000	27.519403
1.800000	27.519403
1.810000	27.519403
1.820000	27.519403
1.830000	27.519403
1.840000	27.519403
1.850000	27.519403
1.860000	27.519403
1.870000	27.519403
1.880000	27.519403
1.890000	27.519403
1.900000	27.519403
1.910000	27.519403
1.920000	27.519403
1.930000	27.519403
1.940000	27.519403
1.950000	27.519403
1.960000	27.519403
1.970000	27.519403
1.980000	27.519403
1.990000	27.519403
2.000000	29.809759
2.010000	29.809759
2.020000	29.809759
2.030000	29.809759
2.040000	29.809759
2.050000	29.809759
2.060000	29.809759
2.070000	29.809759
2.080000	29.809759
2.090000	29.809759
2.100000	29.809759
2.110000	29.809759
2.120000	29.809759
2.130000	29.809759
2.140000	29.809759
2.150000	29.809759
2.160000	29.809759
2.170000	29.809759
2.180000	29.809759
2.190000	29.809759
2.200000	29.809759
2.210000	29.809759
2.220000	29.809759
2.230000	29.809759
2.240000	29.809759
2.250000	29.809759
2.260000	29.809759
2.270000	29.809759
2.280000	29.809759
2.290000	29.809759
2.300000	29.809759
2.310000	29.809759
2.320000	29.809759
2.330000	29.809759
2.340000	29.809759
2.350000	29.809759
2.360000	29.809759
2.370000	29.809759
2.380000	29.809759
2.390000	29.809759
2.400000	29.809759
2.410000	29.809759
2.420000	29.809759
2.430000	29.809759
2.440000	29.809759
2.450000	29.809759
2.460000	29.809759
2.470000	29.809759
2.480000	29.809759
2.490000	29.809759
2.500000	32.616745
2.510000	32.616745
2.520000	32.616745
2.530000	32.616745
2.540000	32.616745
2.550000	32.616745
2.560000	32.616745
2.570000	32.616745
2.580000	32.616745
2.590000	32.616745
2.600000	32.616745
2.610000	32.616745
2.620000	32.616745
2.630000	32.616745
2.640000	32.616745
2.650000	32.616745
2.660000	32.616745
2.670000	32.616745
2.680000	32.616745
2.690000	32.616745
2.700000	32.616745
2.710000	32.616745
2.720000	32.616745
2.730000	32.616745
2.740000	32.616745
2.750000	32.616745
2.760000	32.616745
2.770000	32.616745
2.780000	32.616745
2.790000	32.616745
2.800000	32.616745
2.810000	32.616745
2.820000	32.616745
2.830000	32.616745
2.840000	32.616745
2.850000	32.616745
2.860000	32.616745
2.870000	32.616745
2.880000	32.616745
2.890000	32.616745
2.900000	32.616745
2.910000	32.616745
2.920000	32.616745
2.930000	32.616745
2.940000	32.616745
2.950000	32.616745
2.960000	32.616745
2.970000	32.616745
2.980000	32.616745
2.990000	32.616745
3.000000	35.696436
3.010000	35.696436
3.020000	35.696436
3.030000	35.696436
3.040000	35.696436
3.050000	35.696436
3.060000	35.696436
3.070000	35.696436
3.080000	35.696436
3.090000	35.696436
3.100000	35.696436
3.110000	35.696436
3.120000	35.696436
3.130000	35.696436
3.140000	35.696436
3.150000	35.696436
3.160000	35.696436
3.170000	35.696436
3.180000	35.696436
3.190000	35.696436
3.200000	35.696436
3.210000	35.696436
3.220000	35.696436
3.230000	35.696436
3.240000	35.696436
3.250000	35.696436
3.260000	35.696436
3.270000	35.696436
3.280000	35.696436
3.290000	35.696436
3.300000	35.696436
3.310000	35.696436
3.320000	35.696436
3.330000	35.696436
3.340000	35.696436
3.350000	35.696436
3.360000	35.696436
3.370000	35.696436
3.380000	35.696436
3.390000	35.696436
3.400000	35.696436
3.410000	35.696436
3.420000	35.696436
3.430000	35.696436
3.440000	35.696436
3.450000	35.696436
3.460000	35.696436
3.470000	35.696436
3.480000	35.696436
3.490000	35.696436
3.500000	38.417558
3.510000	38.417558
3.520000	38.417558
3.530000	38.417558
3.540000	38.417558
3.550000	38.417558
3.560000	38.417558
3.570000	38.417558
3.580000	38.417558
3.590000	38.417558
3.600000	38.417558
3.610000	38.417558
3.620000	38.417558
3.630000	38.417558
3.640000	38.417558
3.650000	38.417558
3.660000	38.417558
3.670000	38.417558
3.680000	38.417558
3.690000	38.417558
3.700000	38.417558
3.710000	38.417558
3.720000	38.417558
3.730000	38.417558
3.740000	38.417558
3.750000	38.417558
3.760000	38.417558
3.770000	38.417558
3.780000	38.417558
3.790000	38.417558
3.800000	38.417558
3.810000	38.417558
3.820000	38.417558
3.830000	38.417558
3.840000	38.417558
3.850000	38.417558
3.860000	38.417558
3.870000	38.417558
3.880000	38.417558
3.890000	38.417558
3.900000	38.417558
3.910000	38.417558
3.920000	38.417558
3.930000	38.417558
3.940000	38.417558
3.950000	38.417558
3.960000	38.417558
3.970000	38.417558
3.980000	38.417558
3.990000	38.417558
4.000000	40.464271
4.010000	40.464271
4.020000	40.464271
4.030000	40.464271
4.040000	40.464271
4.050000	40.464271
4.060000	40.464271
4.070000	40.464271
4.080000	40.464271
4.090000	40.464271
4.100000	40.464271
4.110000	40.464271
4.120000	40.464271
4.130000	40.464271
4.140000	40.464271
4.150000	40.464271
4.160000	40.464271
4.170000	40.464271
4.180000	40.464271
4.190000	40.464271
4.200000	40.464271
4.210000	40.464271
4.220000	40.464271
4.230000	40.464271
4.240000	40.464271
4.250000	40.464271
4.260000	40.464271
4.270000	40.464271
4.280000	40.464271
4.290000	40.464271
4.300000	40.464271
4.310000	40.464271
4.320000	40.464271
4.330000	40.464271
4.340000	40.464271
4.350000	40.464271
4.360000	40.464271
4.370000	40.464271
4.380000	40.464271
4.390000	40.464271
4.400000	40.464271
4.410000	40.464271
4.420000	40.464271
4.430000	40.464271
4.440000	40.464271
4.450000	40.464271
4.460000	40.464271
4.470000	40.464271
4.480000	40.464271
4.490000	40.464271
4.500000	41.917525
4.510000	41.917525
4.520000	41.917525
4.530000	41.917525
4.540000	41.917525
4.550000	41.917525
4.560000	41.917525
4.570000	41.917525
4.580000	41.917525
4.590000	41.917525
4.600000	41.917525
4.610000	41.917525
4.620000	41.917525
4.630000	41.917525
4.640000	41.917525
4.650000	41.917525
4.660000	41.917525
4.670000	41.917525
4.680000	41.917525
4.690000	41.917525
4.700000	41.917525
4.710000	41.917525
4.720000	41.917525
4.730000	41.917525
4.740000	41.917525
4.750000	41.917525
4.760000	41.917525
4.770000	41.917525
4.780000	41.917525
4.790000	41.917525
4.800000	41.917525
4.810000	41.917525
4.820000	41.917525
4.830000	41.917525
4.840000	41.917525
4.850000	41.917525
4.860000	41.917525
4.870000	41.917525
4.880000	41.917525
4.890000	41.917525
4.900000	41.917525
4.910000	41.917525
4.920000	41.917525
4.930000	41.917525
4.940000	41.917525
4.950000	41.917525
4.960000	41.917525
4.970000	41.917525
4.980000	41.917525
4.990000	41.917525
5.000000	42.920877
5.010000	42.920877
5.020000	42.920877
5.030000	42.920877
5.040000	42.920877
5.050000	42.920877
5.060000	42.920877
5.070000	42.920877
5.080000	42.920877
5.090000	42.920877
5.100000	42.920877
5.110000	42.920877
5.120000	42.920877
5.130000	42.920877
5.140000	42.920877
5.150000	42.920877
5.160000	42.920877
5.170000	42.920877
5.180000	42.920877
5.190000	42.920877
5.200000	42.920877
5.210000	42.920877
5.220000	42.920877
5.230000	42.920877
5.240000	42.920877
5.250000	42.920877
5.260000	42.920877
5.270000	42.920877
5.280000	42.920877
5.290000	42.920877
5.300000	42.920877
5.310000	42.920877
5.320000	42.920877
5.330000	42.920877
5.340000	42.920877
5.350000	42.920877
5.360000	42.920877
5.370000	42.920877
5.380000	42.920877
5.390000	42.920877
5.400000	42.920877
5.410000	42.920877
5.420000	42.920877
5.430000	42.920877
5.440000	42.920877
5.450000	42.920877
5.460000	42.920877
5.470000	42.920877
5.480000	42.920877
5.490000	42.920877
5.500000	43.598598
5.510000	43.598598
5.520000	43.598598
5.530000	43.598598
5.540000	43.598598
5.550000	43.598598
5.560000	43.598598
5.570000	43.598598
5.580000	43.598598
5.590000	43.598598
5.600000	43.598598
5.610000	43.598598
5.620000	43.598598
5.630000	43.598598
5.640000	43.598598
5.650000	43.598598
5.660000	43.598598
5.670000	43.598598
5.680000	43.598598
5.690000	43.598598
5.700000	43.598598
5.710000	43.598598
5.720000	43.598598
5.730000	43.598598
5.740000	43.598598
5.750000	43.598598
5.760000	43.598598
5.770000	43.598598
5.780000	43.598598
5.790000	43.598598
5.800000	43.598598
5.810000	43.598598
5.820000	43.598598
5.830000	43.598598
5.840000	43.598598
5.850000	43.598598
5.860000	43.598598
5.870000	43.598598
5.880000	43.598598
5.890000	43.598598
5.900000	43.598598
5.910000	43.598598
5.920000	43.598598
5.930000	43.598598
5.940000	43.598598
5.950000	43.598598
5.960000	43.598598
5.970000	43.598598
5.980000	43.598598
5.990000	43.598598
6.000000	44.031358
6.010000	44.031358
6.020000	44.031358
6.030000	44.031358
6.040000	44.031358
6.050000	44.031358
6.060000	44.031358
6.070000	44.031358
6.080000	44.031358
6.090000	44.031358
6.100000	44.031358
6.110000	44.031358
6.120000	44.031358
6.130000	44.031358
6.140000	44.031358
6.150000	44.031358
6.160000	44.031358
6.170000	44.031358
6.180000	44.031358
6.190000	44.031358
6.200000	44.031358
6.210000	44.031358
6.220000	44.031358
6.230000	44.031358
6.240000	44.031358
6.250000	44.031358
6.260000	44.031358
6.270000	44.031358
6.280000	44.031358
6.290000	44.031358
6.300000	44.031358
6.310000	44.031358
6.320000	44.031358
6.330000	44.031358
6.340000	44.031358
6.350000	44.031358
6.360000	44.031358
6.370000	44.031358
6.380000	44.031358
6.390000	44.031358
6.400000	44.031358
6.410000	44.031358
6.420000	44.031358
6.430000	44.031358
6.440000	44.031358
6.450000	44.031358
6.460000	44.031358
6.470000	44.031358
6.480000	44.031358
6.490000	44.031358
6.500000	44.278010
6.510000	44.278010
6.520000	44.278010
6.530000	44.278010
6.540000	44.278010
6.550000	44.278010
6.560000	44.278010
6.570000	44.278010
6.580000	44.278010
6.590000	44.278010
6.600000	44.278010
6.610000	44.278010
6.620000	44.278010
6.630000	44.278010
6.640000	44.278010
6.650000	44.278010
6.660000	44.278010
6.670000	44.278010
6.680000	44.278010
6.690000	44.278010
6.700000	44.278010
6.710000	44.278010
6.720000	44.278010
6.730000	44.278010
6.740000	44.278010
6.750000	44.278010
6.760000	44.278010
6.770000	44.278010
6.780000	44.278010
6.790000	44.278010
6.800000	44.278010
6.810000	44.278010
6.820000	44.278010
6.830000	44.278010
6.840000	44.278010
6.850000	44.278010
6.860000	44.278010
6.870000	44.278010
6.880000	44.278010
6.890000	44.278010
6.900000	44.278010
6.910000	44.278010
6.920000	44.278010
6.930000	44.278010
6.940000	44.278010
6.950000	44.278010
6.960000	44.278010
6.970000	44.278010
6.980000	44.278010
6.990000	44.278010
7.000000	44.375241
7.010000	44.375241
7.020000	44.375241
7.030000	44.375241
7.040000	44.375241
7.050000	44.375241
7.060000	44.375241
7.070000	44.375241
7.080000	44.375241
7.090000	44.375241
7.100000	44.375241
7.110000	44.375241
7.120000	44.375241
7.130000	44.375241
7.140000	44.375241
7.150000	44.375241
7.160000	44.375241
7.170000	44.375241
7.180000	44.375241
7.190000	44.375241
7.200000	44.375241
7.210000	44.375241
7.220000	44.375241
7.230000	44.375241
7.240000	44.375241
7.250000	44.375241
7.260000	44.375241
7.270000	44.375241
7.280000	44.375241
7.290000	44.375241
7.300000	44.375241
7.310000	44.375241
7.320000	44.375241
7.330000	44.375241
7.340000	44.375241
7.350000	44.375241
7.360000	44.375241
7.370000	44.375241
7.380000	44.375241
7.390000	44.375241
7.400000	44.375241
7.410000	44.375241
7.420000	44.375241
7.430000	44.375241
7.440000	44.375241
7.450000	44.375241
7.460000	44.375241
7.470000	44.375241
7.480000	44.375241
7.490000	44.375241
7.500000	44.350622
7.510000	44.350622
7.520000	44.350622
7.530000	44.350622
7.540000	44.350622
7.550000	44.350622
7.560000	44.350622
7.570000	44.350622
7.580000	44.350622
7.590000	44.350622
7.600000	44.350622
7.610000	44.350622
7.620000	44.350622
7.630000	44.350622
7.640000	44.350622
7.650000	44.350622
7.660000	44.350622
7.670000	44.350622
7.680000	44.350622
7.690000	44.350622
7.700000	44.350622
7.710000	44.350622
7.720000	44.350622
7.730000	44.350622
7.740000	44.350622
7.750000	44.350622
7.760000	44.350622
7.770000	44.350622
7.780000	44.350622
7.790000	44.350622
7.800000	44.350622
7.810000	44.350622
7.820000	44.350622
7.830000	44.350622
7.840000	44.350622
7.850000	44.350622
7.860000	44.350622
7.870000	44.350622
7.880000	44.350622
7.890000	44.350622
7.900000	44.350622
7.910000	44.350622
7.920000	44.350622
7.930000	44.350622
7.940000	44.350622
7.950000	44.350622
7.960000	44.350622
7.970000	44.350622
7.980000	44.350622
7.990000	44.350622
8.000000	44.238247
8.010000	44.238247
8.020000	44.238247
8.030000	44.238247
8.040000	44.238247
8.050000	44.238247
8.060000	44.238247
8.070000	44.238247
8.080000	44.238247
8.090000	44.238247
8.100000	44.238247
8.110000	44.238247
8.120000	44.238247
8.130000	44.238247
8.140000	44.238247
8.150000	44.238247
8.160000	44.238247
8.170000	44.238247
8.180000	44.238247
8.190000	44.238247
8.200000	44.238247
8.210000	44.238247
8.220000	44.238247
8.230000	44.238247
8.240000	44.238247
8.250000	44.238247
8.260000	44.238247
8.270000	44.238247
8.280000	44.238247
8.290000	44.238247
8.300000	44.238247
8.310000	44.238247
8.320000	44.238247
8.330000	44.238247
8.340000	44.238247
8.350000	44.238247
8.360000	44.238247
8.370000	44.238247
8.380000	44.238247
8.390000	44.238247
8.400000	44.238247
8.410000	44.238247
8.420000	44.238247
8.430000	44.238247
8.440000	44.238247
8.450000	44.238247
8.460000	44.238247
8.470000	44.238247
8.480000	44.238247
8.490000	44.238247
8.500000	44.050816
8.510000	44.050816
8.520000	44.050816
8.530000	44.050816
8.540000	44.050816
8.550000	44.050816
8.560000	44.050816
8.570000	44.050816
8.580000	44.050816
8.590000	44.050816
8.600000	44.050816
8.610000	44.050816
8.620000	44.050816
8.630000	44.050816
8.640000	44.050816
8.650000	44.050816
8.660000	44.050816
8.670000	44.050816
8.680000	44.050816
8.690000	44.050816
8.700000	44.050816
8.710000	44.050816
8.720000	44.050816
8.730000	44.050816
8.740000	44.050816
8.750000	44.050816
8.760000	44.050816
8.770000	44.050816
8.780000	44.050816
8.790000	44.050816
8.800000	44.050816
8.810000	44.050816
8.820000	44.050816
8.830000	44.050816
8.840000	44.050816
8.850000	44.050816
8.860000	44.050816
8.870000	44.050816
8.880000	44.050816
8.890000	44.050816
8.900000	44.050816
8.910000	44.050816
8.920000	44.050816
8.930000	44.050816
8.940000	44.050816
8.950000	44.050816
8.960000	44.050816
8.970000	44.050816
8.980000	44.050816
8.990000	44.050816
9.000000	43.820542
9.010000	43.820542
9.020000	43.820542
9.030000	43.820542
9.040000	43.820542
9.050000	43.820542
9.060000	43.820542
9.070000	43.820542
9.080000	43.820542
9.090000	43.820542
9.100000	43.820542
9.110000	43.820542
9.120000	43.820542
9.130000	43.820542
9.140000	43.820542
9.150000	43.820542
9.160000	43.820542
9.170000	43.820542
9.180000	43.820542
9.190000	43.820542
9.200000	43.820542
9.210000	43.820542
9.220000	43.820542
9.230000	43.820542
9.240000	43.820542
9.250000	43.820542
9.260000	43.820542
9.270000	43.820542
9.280000	43.820542
9.290000	43.820542
9.300000	43.820542
9.310000	43.820542
9.320000	43.820542
9.330000	43.820542
9.340000	43.820542
9.350000	43.820542
9.360000	43.820542
9.370000	43.820542
9.380000	43.820542
9.390000	43.820542
9.400000	43.820542
9.410000	43.820542
9.420000	43.820542
9.430000	43.820542
9.440000	43.820542
9.450000	43.820542
9.460000	43.820542
9.470000	43.820542
9.480000	43.820542
9.490000	43.820542
9.500000	43.560986
9.510000	43.560986
9.520000	43.560986
9.530000	43.560986
9.540000	43.560986
9.550000	43.560986
9.560000	43.560986
9.570000	43.560986
9.580000	43.560986
9.590000	43.560986
9.600000	43.560986
9.610000	43.560986
9.620000	43.560986
9.630000	43.560986
9.640000	43.560986
9.650000	43.560986
9.660000	43.560986
9.670000	43.560986
9.680000	43.560986
9.690000	43.560986
9.700000	43.560986
9.710000	43.560986
9.720000	43.560986
9.730000	43.560986
9.740000	43.560986
9.750000	43.560986
9.760000	43.560986
9.770000	43.560986
9.780000	43.560986
9.790000	43.560986
9.800000	43.560986
9.810000	43.560986
9.820000	43.560986
9.830000	43.560986
9.840000	43.560986
9.850000	43.560986
9.860000	43.560986
9.870000	43.560986
9.880000	43.560986
9.890000	43.560986
9.900000	43.560986
9.910000	43.560986
9.920000	43.560986
9.930000	43.560986
9.940000	43.560986
9.950000	43.560986
9.960000	43.560986
9.970000	43.560986
9.980000	43.560986
9.990000	43.560986
10.000000	43.263682
10.010000	43.263682
10.020000	43.263682
10.030000	43.263682
10.040000	43.263682
10.050000	43.263682
10.060000	43.263682
10.070000	43.263682
10.080000	43.263682
10.090000	43.263682
10.100000	43.263682
10.110000	43.263682
10.120000	43.263682
10.130000	43.263682
10.140000	43.263682
10.150000	43.263682
10.160000	43.263682
10.170000	43.263682
10.180000	43.263682
10.190000	43.263682
10.200000	43.263682
10.210000	43.263682
10.220000	43.263682
10.230000	43.263682
10.240000	43.263682
10.250000	43.263682
10.260000	43.263682
10.270000	43.263682
10.280000	43.263682
10.290000	43.263682
10.300000	43.263682
10.310000	43.263682
10.320000	43.263682
10.330000	43.263682
10.340000	43.263682
10.350000	43.263682
10.360000	43.263682
10.370000	43.263682
10.380000	43.263682
10.390000	43.263682
10.400000	43.263682
10.410000	43.263682
10.420000	43.263682
10.430000	43.263682
10.440000	43.263682
10.450000	43.263682
10.460000	43.263682
10.470000	43.263682
10.480000	43.263682
10.490000	43.263682
10.500000	42.957551
10.510000	42.957551
10.520000	42.957551
10.530000	42.957551
10.540000	42.957551
10.550000	42.957551
10.560000	42.957551
10.570000	42.957551
10.580000	42.957551
10.590000	42.957551
10.600000	42.957551
10.610000	42.957551
10.620000	42.957551
10.630000	42.957551
10.640000	42.957551
10.650000	42.957551
10.660000	42.957551
10.670000	42.957551
10.680000	42.957551
10.690000	42.957551
10.700000	42.957551
10.710000	42.957551
10.720000	42.957551
10.730000	42.957551
10.740000	42.957551
10.750000	42.957551
10.760000	42.957551
10.770000	42.957551
10.780000	42.957551
10.790000	42.957551
10.800000	42.957551
10.810000	42.957551
10.820000	42.957551
10.830000	42.957551
10.840000	42.957551
10.850000	42.957551
10.860000	42.957551
10.870000	42.957551
10.880000	42.957551
10.890000	42.957551
10.900000	42.957551
10.910000	42.957551
10.920000	42.957551
10.930000	42.957551
10.940000	42.957551
10.950000	42.957551
10.960000	42.957551
10.970000	42.957551
10.980000	42.957551
10.990000	42.957551
11.000000	42.645561
11.010000	42.645561
11.020000	42.645561
11.030000	42.645561
11.040000	42.645561
11.050000	42.645561
11.060000	42.645561
11.070000	42.645561
11.080000	42.645561
11.090000	42.645561
11.100000	42.645561
11.110000	42.645561
11.120000	42.645561
11.130000	42.645561
11.140000	42.645561
11.150000	42.645561
11.160000	42.645561
11.170000	42.645561
11.180000	42.645561
11.190000	42.645561
11.200000	42.645561
11.210000	42.645561
11.220000	42.645561
11.230000	42.645561
11.240000	42.645561
11.250000	42.645561
11.260000	42.645561
11.270000	42.645561
11.280000	42.645561
11.290000	42.645561
11.300000	42.645561
11.310000	42.645561
11.320000	42.645561
11.330000	42.645561
11.340000	42.645561
11.350000	42.645561
11.360000	42.645561
11.370000	42.645561
11.380000	42.645561
11.390000	42.645561
11.400000	42.645561
11.410000	42.645561
11.420000	42.645561
11.430000	42.645561
11.440000	42.645561
11.450000	42.645561
11.460000	42.645561
11.470000	42.645561
11.480000	42.645561
11.490000	42.645561
11.500000	42.328804
11.510000	42.328804
11.520000	42.328804
11.530000	42.328804
11.540000	42.328804
11.550000	42.328804
11.560000	42.328804
11.570000	42.328804
11.580000	42.328804
11.590000	42.328804
11.600000	42.328804
11.610000	42.328804
11.620000	42.328804
11.630000	42.328804
11.640000	42.328804
11.650000	42.328804
11.660000	42.328804
11.670000	42.328804
11.680000	42.328804
11.690000	42.328804
11.700000	42.328804
11.710000	42.328804
11.720000	42.328804
11.730000	42.328804
11.740000	42.328804
11.750000	42.328804
11.760000	42.328804
11.770000	42.328804
11.780000	42.328804
11.790000	42.328804
11.800000	42.328804
11.810000	42.328804
11.820000	42.328804
11.830000	42.328804
11.840000	42.328804
11.850000	42.328804
11.860000	42.328804
11.870000	42.328804
11.880000	42.328804
11.890000	42.328804
11.900000	42.328804
11.910000	42.328804
11.920000	42.328804
11.930000	42.328804
11.940000	42.328804
11.950000	42.328804
11.960000	42.328804
11.970000	42.328804
11.980000	42.328804
11.990000	42.328804
12.000000	42.004052
12.010000	42.004052
12.020000	42.004052
12.030000	42.004052
12.040000	42.004052
12.050000	42.004052
12.060000	42.004052
12.070000	42.004052
12.080000	42.004052
12.090000	42.004052
12.100000	42.004052
12.110000	42.004052
12.120000	42.004052
12.130000	42.004052
12.140000	42.004052
12.150000	42.004052
12.160000	42.004052
12.170000	42.004052
12.180000	42.004052
12.190000	42.004052
12.200000	42.004052
12.210000	42.004052
12.220000	42.004052
12.230000	42.004052
12.240000	42.004052
12.250000	42.004052
12.260000	42.004052
12.270000	42.004052
12.280000	42.004052
12.290000	42.004052
12.300000	42.004052
12.310000	42.004052
12.320000	42.004052
12.330000	42.004052
12.340000	42.004052
12.350000	42.004052
12.360000	42.004052
12.370000	42.004052
12.380000	42.004052
12.390000	42.004052
12.400000	42.004052
12.410000	42.004052
12.420000	42.004052
12.430000	42.004052
12.440000	42.004052
12.450000	42.004052
12.460000	42.004052
12.470000	42.004052
12.480000	42.004052
12.490000	42.004052
12.500000	41.674591
12.510000	41.674591
12.520000	41.674591
12.530000	41.674591
12.540000	41.674591
12.550000	41.674591
12.560000	41.674591
12.570000	41.674591
12.580000	41.674591
12.590000	41.674591
12.600000	41.674591
12.610000	41.674591
12.620000	41.674591
12.630000	41.674591
12.640000	41.674591
12.650000	41.674591
12.660000	41.674591
12.670000	41.674591
12.680000	41.674591
12.690000	41.674591
12.700000	41.674591
12.710000	41.674591
12.720000	41.674591
12.730000	41.674591
12.740000	41.674591
12.750000	41.674591
12.760000	41.674591
12.770000	41.674591
12.780000	41.674591
12.790000	41.674591
12.800000	41.674591
12.810000	41.674591
12.820000	41.674591
12.830000	41.674591
12.840000	41.674591
12.850000	41.674591
12.860000	41.674591
12.870000	41.674591
12.880000	41.674591
12.890000	41.674591
12.900000	41.674591
12.910000	41.674591
12.920000	41.674591
12.930000	41.674591
12.940000	41.674591
12.950000	41.674591
12.960000	41.674591
12.970000	41.674591
12.980000	41.674591
12.990000	41.674591
13.000000	41.344761
13.010000	41.344761
13.020000	41.344761
13.030000	41.344761
13.040000	41.344761
13.050000	41.344761
13.060000	41.344761
13.070000	41.344761
13.080000	41.344761
13.090000	41.344761
13.100000	41.344761
13.110000	41.344761
13.120000	41.344761
13.130000	41.344761
13.140000	41.344761
13.150000	41.344761
13.160000	41.344761
13.170000	41.344761
13.180000	41.344761
13.190000	41.344761
13.200000	41.344761
13.210000	41.344761
13.220000	41.344761
13.230000	41.344761
13.240000	41.344761
13.250000	41.344761
13.260000	41.344761
13.270000	41.344761
13.280000	41.344761
13.290000	41.344761
13.300000	41.344761
13.310000	41.344761
13.320000	41.344761
13.330000	41.344761
13.340000	41.344761
13.350000	41.344761
13.360000	41.344761
13.370000	41.344761
13.380000	41.344761
13.390000	41.344761
13.400000	41.344761
13.410000	41.344761
13.420000	41.344761
13.430000	41.344761
13.440000	41.344761
13.450000	41.344761
13.460000	41.344761
13.470000	41.344761
13.480000	41.344761
13.490000	41.344761
13.500000	41.011628
13.510000	41.011628
13.520000	41.011628
13.530000	41.011628
13.540000	41.011628
13.550000	41.011628
13.560000	41.011628
13.570000	41.011628
13.580000	41.011628
13.590000	41.011628
13.600000	41.011628
13.610000	41.011628
13.620000	41.011628
13.630000	41.011628
13.640000	41.011628
13.650000	41.011628
13.660000	41.011628
13.670000	41.011628
13.680000	41.011628
13.690000	41.011628
13.700000	41.011628
13.710000	41.011628
13.720000	41.011628
13.730000	41.011628
13.740000	41.011628
13.750000	41.011628
13.760000	41.011628
13.770000	41.011628
13.780000	41.011628
13.790000	41.011628
13.800000	41.011628
13.810000	41.011628
13.820000	41.011628
13.830000	41.011628
13.840000	41.011628
13.850000	41.011628
13.860000	41.011628
13.870000	41.011628
13.880000	41.011628
13.890000	41.011628
13.900000	41.011628
13.910000	41.011628
13.920000	41.011628
13.930000	41.011628
13.940000	41.011628
13.950000	41.011628
13.960000	41.011628
13.970000	41.011628
13.980000	41.011628
13.990000	41.011628
14.000000	40.688026
14.010000	40.688026
14.020000	40.688026
14.030000	40.688026
14.040000	40.688026
14.050000	40.688026
14.060000	40.688026
14.070000	40.688026
14.080000	40.688026
14.090000	40.688026
14.100000	40.688026
14.110000	40.688026
14.120000	40.688026
14.130000	40.688026
14.140000	40.688026
14.150000	40.688026
14.160000	40.688026
14.170000	40.688026
14.180000	40.688026
14.190000	40.688026
14.200000	40.688026
14.210000	40.688026
14.220000	40.688026
14.230000	40.688026
14.240000	40.688026
14.250000	40.688026
14.260000	40.688026
14.270000	40.688026
14.280000	40.688026
14.290000	40.688026
14.300000	40.688026
14.310000	40.688026
14.320000	40.688026
14.330000	40.688026
14.340000	40.688026
14.350000	40.688026
14.360000	40.688026
14.370000	40.688026
14.380000	40.688026
14.390000	40.688026
14.400000	40.688026
14.410000	40.688026
14.420000	40.688026
14.430000	40.688026
14.440000	40.688026
14.450000	40.688026
14.460000	40.688026
14.470000	40.688026
14.480000	40.688026
14.490000	40.688026
14.500000	40.370555
14.510000	40.370555
14.520000	40.370555
14.530000	40.370555
14.540000	40.370555
14.550000	40.370555
14.560000	40.370555
14.570000	40.370555
14.580000	40.370555
14.590000	40.370555
14.600000	40.370555
14.610000	40.370555
14.620000	40.370555
14.630000	40.370555
14.640000	40.370555
14.650000	40.370555
14.660000	40.370555
14.670000	40.370555
14.680000	40.370555
14.690000	40.370555
14.700000	40.370555
14.710000	40.370555
14.720000	40.370555
14.730000	40.370555
14.740000	40.370555
14.750000	40.370555
14.760000	40.370555
14.770000	40.370555
14.780000	40.370555
14.790000	40.370555
14.800000	40.370555
14.810000	40.370555
14.820000	40.370555
14.830000	40.370555
14.840000	40.370555
14.850000	40.370555
14.860000	40.370555
14.870000	40.370555
14.880000	40.370555
14.890000	40.370555
14.900000	40.370555
14.910000	40.370555
14.920000	40.370555
14.930000	40.370555
14.940000	40.370555
14.950000	40.370555
14.960000	40.370555
14.970000	40.370555
14.980000	40.370555
14.990000	40.370555
15.000000	40.051203
15.010000	40.051203
15.020000	40.051203
15.030000	40.051203
15.040000	40.051203
15.050000	40.051203
15.060000	40.051203
15.070000	40.051203
15.080000	40.051203
15.090000	40.051203
15.100000	40.051203
15.110000	40.051203
15.120000	40.051203
15.130000	40.051203
15.140000	40.051203
15.150000	40.051203
15.160000	40.051203
15.170000	40.051203
15.180000	40.051203
15.190000	40.051203
15.200000	40.051203
15.210000	40.051203
15.220000	40.051203
15.230000	40.051203
15.240000	40.051203
15.250000	40.051203
15.260000	40.051203
15.270000	40.051203
15.280000	40.051203
15.290000	40.051203
15.300000	40.051203
15.310000	40.051203
15.320000	40.051203
15.330000	40.051203
15.340000	40.051203
15.350000	40.051203
15.360000	40.051203
15.370000	40.051203
15.380000	40.051203
15.390000	40.051203
15.400000	40.051203
15.410000	40.051203
15.420000	40.051203
15.430000	40.051203
15.440000	40.051203
15.450000	40.051203
15.460000	40.051203
15.470000	40.051203
15.480000	40.051203
15.490000	40.051203
15.500000	39.736603
15.510000	39.736603
15.520000	39.736603
15.530000	39.736603
15.540000	39.736603
15.550000	39.736603
15.560000	39.736603
15.570000	39.736603
15.580000	39.736603
15.590000	39.736603
15.600000	39.736603
15.610000	39.736603
15.620000	39.736603
15.630000	39.736603
15.640000	39.736603
15.650000	39.736603
15.660000	39.736603
15.670000	39.736603
15.680000	39.736603
15.690000	39.736603
15.700000	39.736603
15.710000	39.736603
15.720000	39.736603
15.730000	39.736603
15.740000	39.736603
15.750000	39.736603
15.760000	39.736603
15.770000	39.736603
15.780000	39.736603
15.790000	39.736603
15.800000	39.736603
15.810000	39.736603
15.820000	39.736603
15.830000	39.736603
15.840000	39.736603
15.850000	39.736603
15.860000	39.736603
15.870000	39.736603
15.880000	39.736603
15.890000	39.736603
15.900000	39.736603
15.910000	39.736603
15.920000	39.736603
15.930000	39.736603
15.940000	39.736603
15.950000	39.736603
15.960000	39.736603
15.970000	39.736603
15.980000	39.736603
15.990000	39.736603
16.000000	39.431627
16.010000	39.431627
16.020000	39.431627
16.030000	39.431627
16.040000	39.431627
16.050000	39.431627
16.060000	39.431627
16.070000	39.431627
16.080000	39.431627
16.090000	39.431627
16.100000	39.431627
16.110000	39.431627
16.120000	39.431627
16.130000	39.431627
16.140000	39.431627
16.150000	39.431627
16.160000	39.431627
16.170000	39.431627
16.180000	39.431627
16.190000	39.431627
16.200000	39.431627
16.210000	39.431627
16.220000	39.431627
16.230000	39.431627
16.240000	39.431627
16.250000	39.431627
16.260000	39.431627
16.270000	39.431627
16.280000	39.431627
16.290000	39.431627
16.300000	39.431627
16.310000	39.431627
16.320000	39.431627
16.330000	39.431627
16.340000	39.431627
16.350000	39.431627
16.360000	39.431627
16.370000	39.431627
16.380000	39.431627
16.390000	39.431627
16.400000	39.431627
16.410000	39.431627
16.420000	39.431627
16.430000	39.431627
16.440000	39.431627
16.450000	39.431627
16.460000	39.431627
16.470000	39.431627
16.480000	39.431627
16.490000	39.431627
16.500000	39.140048
16.510000	39.140048
16.520000	39.140048
16.530000	39.140048
16.540000	39.140048
16.550000	39.140048
16.560000	39.140048
16.570000	39.140048
16.580000	39.140048
16.590000	39.140048
16.600000	39.140048
16.610000	39.140048
16.620000	39.140048
16.630000	39.140048
16.640000	39.140048
16.650000	39.140048
16.660000	39.140048
16.670000	39.140048
16.680000	39.140048
16.690000	39.140048
16.700000	39.140048
16.710000	39.140048
16.720000	39.140048
16.730000	39.140048
16.740000	39.140048
16.750000	39.140048
16.760000	39.140048
16.770000	39.140048
16.780000	39.140048
16.790000	39.140048
16.800000	39.140048
16.810000	39.140048
16.820000	39.140048
16.830000	39.140048
16.840000	39.140048
16.850000	39.140048
16.860000	39.140048
16.870000	39.140048
16.880000	39.140048
16.890000	39.140048
16.900000	39.140048
16.910000	39.140048
16.920000	39.140048
16.930000	39.140048
16.940000	39.140048
16.950000	39.140048
16.960000	39.140048
16.970000	39.140048
16.980000	39.140048
16.990000	39.140048
17.000000	38.861742
17.010000	38.861742
17.020000	38.861742
17.030000	38.861742
17.040000	38.861742
17.050000	38.861742
17.060000	38.861742
17.070000	38.861742
17.080000	38.861742
17.090000	38.861742
17.100000	38.861742
17.110000	38.861742
17.120000	38.861742
17.130000	38.861742
17.140000	38.861742
17.150000	38.861742
17.160000	38.861742
17.170000	38.861742
17.180000	38.861742
17.190000	38.861742
17.200000	38.861742
17.210000	38.861742
17.220000	38.861742
17.230000	38.861742
17.240000	38.861742
17.250000	38.861742
17.260000	38.861742
17.270000	38.861742
17.280000	38.861742
17.290000	38.861742
17.300000	38.861742
17.310000	38.861742
17.320000	38.861742
17.330000	38.861742
17.340000	38.861742
17.350000	38.861742
17.360000	38.861742
17.370000	38.861742
17.380000	38.861742
17.390000	38.861742
17.400000	38.861742
17.410000	38.861742
17.420000	38.861742
17.430000	38.861742
17.440000	38.861742
17.450000	38.861742
17.460000	38.861742
17.470000	38.861742
17.480000	38.861742
17.490000	38.861742
