LabVIEW Measurement	
Writer_Version	2
Reader_Version	2
Separator	Tab
Decimal_Separator	.
Multi_Headings	No
X_Columns	One
Time_Pref	Absolute
Operator	biomech-dyno
Date	2023/04/27
Time	17:41:55.9338632999999876419
***End_of_Header***	
	
Channels	1	
Samples	10	
Date	2023/04/27	
Time	20:26:44.8189796999995293338	
X_Dimension	Time	
X0	0.0000000000000000E+0	
Delta_X	0.010000	
***End_of_Header***		
X_Value	Untitled	Comment
0.000000	25.216828
0.010000	25.216828
0.020000	25.216828
0.030000	25.216828
0.040000	25.216828
0.050000	25.216828
0.060000	25.216828
0.070000	25.216828
0.080000	25.216828
0.090000	25.216828
0.100000	25.216828
0.110000	25.216828
0.120000	25.216828
0.130000	25.216828
0.140000	25.216828
0.150000	25.216828
0.160000	25.216828
0.170000	25.216828
0.180000	25.216828
0.190000	25.216828
0.200000	25.216828
0.210000	25.216828
0.220000	25.216828
0.230000	25.216828
0.240000	25.216828
0.250000	25.216828
0.260000	25.216828
0.270000	25.216828
0.280000	25.216828
0.290000	25.216828
0.300000	25.216828
0.310000	25.216828
0.320000	25.216828
0.330000	25.216828
0.340000	25.216828
0.350000	25.216828
0.360000	25.216828
0.370000	25.216828
0.380000	25.216828
0.390000	25.216828
0.400000	25.216828
0.410000	25.216828
0.420000	25.216828
0.430000	25.216828
0.440000	25.216828
0.450000	25.216828
0.460000	25.216828
0.470000	25.216828
0.480000	25.216828
0.490000	25.216828
0.500000	25.291313
0.510000	25.291313
0.520000	25.291313
0.530000	25.291313
0.540000	25.291313
0.550000	25.291313
0.560000	25.291313
0.570000	25.291313
0.580000	25.291313
0.590000	25.291313
0.600000	25.291313
0.610000	25.291313
0.620000	25.291313
0.630000	25.291313
0.640000	25.291313
0.650000	25.291313
0.660000	25.291313
0.670000	25.291313
0.680000	25.291313
0.690000	25.291313
0.700000	25.291313
0.710000	25.291313
0.720000	25.291313
0.730000	25.291313
0.740000	25.291313
0.750000	25.291313
0.760000	25.291313
0.770000	25.291313
0.780000	25.291313
0.790000	25.291313
0.800000	25.291313
0.810000	25.291313
0.820000	25.291313
0.830000	25.291313
0.840000	25.291313
0.850000	25.291313
0.860000	25.291313
0.870000	25.291313
0.880000	25.291313
0.890000	25.291313
0.900000	25.291313
0.910000	25.291313
0.920000	25.291313
0.930000	25.291313
0.940000	25.291313
0.950000	25.291313
0.960000	25.291313
0.970000	25.291313
0.980000	25.291313
0.990000	25.291313
1.000000	26.005256
1.010000	26.005256
1.020000	26.005256
1.030000	26.005256
1.040000	26.005256
1.050000	26.005256
1.060000	26.005256
1.070000	26.005256
1.080000	26.005256
1.090000	26.005256
1.100000	26.005256
1.110000	26.005256
1.120000	26.005256
1.130000	26.005256
1.140000	26.005256
1.150000	26.005256
1.160000	26.005256
1.170000	26.005256
1.180000	26.005256
1.190000	26.005256
1.200000	26.005256
1.210000	26.005256
1.220000	26.005256
1.230000	26.005256
1.240000	26.005256
1.250000	26.005256
1.260000	26.005256
1.270000	26.005256
1.280000	26.005256
1.290000	26.005256
1.300000	26.005256
1.310000	26.005256
1.320000	26.005256
1.330000	26.005256
1.340000	26.005256
1.350000	26.005256
1.360000	26.005256
1.370000	26.005256
1.380000	26.005256
1.390000	26.005256
1.400000	26.005256
1.410000	26.005256
1.420000	26.005256
1.430000	26.005256
1.440000	26.005256
1.450000	26.005256
1.460000	26.005256
1.470000	26.005256
1.480000	26.005256
1.490000	26.005256
1.500000	27.652785
1.510000	27.652785
1.520000	27.652785
1.530000	27.652785
1.540000	27.652785
1.550000	27.652785
1.560000	27.652785
1.570000	27.652785
1.580000	27.652785
1.590000	27.652785
1.600000	27.652785
1.610000	27.652785
1.620000	27.652785
1.630000	27.652785
1.640000	27.652785
1.650000	27.652785
1.660000	27.652785
1.670000	27.652785
1.680000	27.652785
1.690000	27.652785
1.700000	27.652785
1.710000	27.652785
1.720000	27.652785
1.730000	27.652785
1.740000	27.652785
1.750000	27.652785
1.760000	27.652785
1.770000	27.652785
1.780000	27.652785
1.790000	27.652785
1.800000	27.652785
1.810000	27.652785
1.820000	27.652785
1.830000	27.652785
1.840000	27.652785
1.850000	27.652785
1.860000	27.652785
1.870000	27.652785
1.880000	27.652785
1.890000	27.652785
1.900000	27.652785
1.910000	27.652785
1.920000	27.652785
1.930000	27.652785
1.940000	27.652785
1.950000	27.652785
1.960000	27.652785
1.970000	27.652785
1.980000	27.652785
1.990000	27.652785
2.000000	30.024744
2.010000	30.024744
2.020000	30.024744
2.030000	30.024744
2.040000	30.024744
2.050000	30.024744
2.060000	30.024744
2.070000	30.024744
2.080000	30.024744
2.090000	30.024744
2.100000	30.024744
2.110000	30.024744
2.120000	30.024744
2.130000	30.024744
2.140000	30.024744
2.150000	30.024744
2.160000	30.024744
2.170000	30.024744
2.180000	30.024744
2.190000	30.024744
2.200000	30.024744
2.210000	30.024744
2.220000	30.024744
2.230000	30.024744
2.240000	30.024744
2.250000	30.024744
2.260000	30.024744
2.270000	30.024744
2.280000	30.024744
2.290000	30.024744
2.300000	30.024744
2.310000	30.024744
2.320000	30.024744
2.330000	30.024744
2.340000	30.024744
2.350000	30.024744
2.360000	30.024744
2.370000	30.024744
2.380000	30.024744
2.390000	30.024744
2.400000	30.024744
2.410000	30.024744
2.420000	30.024744
2.430000	30.024744
2.440000	30.024744
2.450000	30.024744
2.460000	30.024744
2.470000	30.024744
2.480000	30.024744
2.490000	30.024744
2.500000	32.906337
2.510000	32.906337
2.520000	32.906337
2.530000	32.906337
2.540000	32.906337
2.550000	32.906337
2.560000	32.906337
2.570000	32.906337
2.580000	32.906337
2.590000	32.906337
2.600000	32.906337
2.610000	32.906337
2.620000	32.906337
2.630000	32.906337
2.640000	32.906337
2.650000	32.906337
2.660000	32.906337
2.670000	32.906337
2.680000	32.906337
2.690000	32.906337
2.700000	32.906337
2.710000	32.906337
2.720000	32.906337
2.730000	32.906337
2.740000	32.906337
2.750000	32.906337
2.760000	32.906337
2.770000	32.906337
2.780000	32.906337
2.790000	32.906337
2.800000	32.906337
2.810000	32.906337
2.820000	32.906337
2.830000	32.906337
2.840000	32.906337
2.850000	32.906337
2.860000	32.906337
2.870000	32.906337
2.880000	32.906337
2.890000	32.906337
2.900000	32.906337
2.910000	32.906337
2.920000	32.906337
2.930000	32.906337
2.940000	32.906337
2.950000	32.906337
2.960000	32.906337
2.970000	32.906337
2.980000	32.906337
2.990000	32.906337
3.000000	36.030306
3.010000	36.030306
3.020000	36.030306
3.030000	36.030306
3.040000	36.030306
3.050000	36.030306
3.060000	36.030306
3.070000	36.030306
3.080000	36.030306
3.090000	36.030306
3.100000	36.030306
3.110000	36.030306
3.120000	36.030306
3.130000	36.030306
3.140000	36.030306
3.150000	36.030306
3.160000	36.030306
3.170000	36.030306
3.180000	36.030306
3.190000	36.030306
3.200000	36.030306
3.210000	36.030306
3.220000	36.030306
3.230000	36.030306
3.240000	36.030306
3.250000	36.030306
3.260000	36.030306
3.270000	36.030306
3.280000	36.030306
3.290000	36.030306
3.300000	36.030306
3.310000	36.030306
3.320000	36.030306
3.330000	36.030306
3.340000	36.030306
3.350000	36.030306
3.360000	36.030306
3.370000	36.030306
3.380000	36.030306
3.390000	36.030306
3.400000	36.030306
3.410000	36.030306
3.420000	36.030306
3.430000	36.030306
3.440000	36.030306
3.450000	36.030306
3.460000	36.030306
3.470000	36.030306
3.480000	36.030306
3.490000	36.030306
3.500000	38.652177
3.510000	38.652177
3.520000	38.652177
3.530000	38.652177
3.540000	38.652177
3.550000	38.652177
3.560000	38.652177
3.570000	38.652177
3.580000	38.652177
3.590000	38.652177
3.600000	38.652177
3.610000	38.652177
3.620000	38.652177
3.630000	38.652177
3.640000	38.652177
3.650000	38.652177
3.660000	38.652177
3.670000	38.652177
3.680000	38.652177
3.690000	38.652177
3.700000	38.652177
3.710000	38.652177
3.720000	38.652177
3.730000	38.652177
3.740000	38.652177
3.750000	38.652177
3.760000	38.652177
3.770000	38.652177
3.780000	38.652177
3.790000	38.652177
3.800000	38.652177
3.810000	38.652177
3.820000	38.652177
3.830000	38.652177
3.840000	38.652177
3.850000	38.652177
3.860000	38.652177
3.870000	38.652177
3.880000	38.652177
3.890000	38.652177
3.900000	38.652177
3.910000	38.652177
3.920000	38.652177
3.930000	38.652177
3.940000	38.652177
3.950000	38.652177
3.960000	38.652177
3.970000	38.652177
3.980000	38.652177
3.990000	38.652177
4.000000	40.606176
4.010000	40.606176
4.020000	40.606176
4.030000	40.606176
4.040000	40.606176
4.050000	40.606176
4.060000	40.606176
4.070000	40.606176
4.080000	40.606176
4.090000	40.606176
4.100000	40.606176
4.110000	40.606176
4.120000	40.606176
4.130000	40.606176
4.140000	40.606176
4.150000	40.606176
4.160000	40.606176
4.170000	40.606176
4.180000	40.606176
4.190000	40.606176
4.200000	40.606176
4.210000	40.606176
4.220000	40.606176
4.230000	40.606176
4.240000	40.606176
4.250000	40.606176
4.260000	40.606176
4.270000	40.606176
4.280000	40.606176
4.290000	40.606176
4.300000	40.606176
4.310000	40.606176
4.320000	40.606176
4.330000	40.606176
4.340000	40.606176
4.350000	40.606176
4.360000	40.606176
4.370000	40.606176
4.380000	40.606176
4.390000	40.606176
4.400000	40.606176
4.410000	40.606176
4.420000	40.606176
4.430000	40.606176
4.440000	40.606176
4.450000	40.606176
4.460000	40.606176
4.470000	40.606176
4.480000	40.606176
4.490000	40.606176
4.500000	41.984659
4.510000	41.984659
4.520000	41.984659
4.530000	41.984659
4.540000	41.984659
4.550000	41.984659
4.560000	41.984659
4.570000	41.984659
4.580000	41.984659
4.590000	41.984659
4.600000	41.984659
4.610000	41.984659
4.620000	41.984659
4.630000	41.984659
4.640000	41.984659
4.650000	41.984659
4.660000	41.984659
4.670000	41.984659
4.680000	41.984659
4.690000	41.984659
4.700000	41.984659
4.710000	41.984659
4.720000	41.984659
4.730000	41.984659
4.740000	41.984659
4.750000	41.984659
4.760000	41.984659
4.770000	41.984659
4.780000	41.984659
4.790000	41.984659
4.800000	41.984659
4.810000	41.984659
4.820000	41.984659
4.830000	41.984659
4.840000	41.984659
4.850000	41.984659
4.860000	41.984659
4.870000	41.984659
4.880000	41.984659
4.890000	41.984659
4.900000	41.984659
4.910000	41.984659
4.920000	41.984659
4.930000	41.984659
4.940000	41.984659
4.950000	41.984659
4.960000	41.984659
4.970000	41.984659
4.980000	41.984659
4.990000	41.984659
5.000000	42.940223
5.010000	42.940223
5.020000	42.940223
5.030000	42.940223
5.040000	42.940223
5.050000	42.940223
5.060000	42.940223
5.070000	42.940223
5.080000	42.940223
5.090000	42.940223
5.100000	42.940223
5.110000	42.940223
5.120000	42.940223
5.130000	42.940223
5.140000	42.940223
5.150000	42.940223
5.160000	42.940223
5.170000	42.940223
5.180000	42.940223
5.190000	42.940223
5.200000	42.940223
5.210000	42.940223
5.220000	42.940223
5.230000	42.940223
5.240000	42.940223
5.250000	42.940223
5.260000	42.940223
5.270000	42.940223
5.280000	42.940223
5.290000	42.940223
5.300000	42.940223
5.310000	42.940223
5.320000	42.940223
5.330000	42.940223
5.340000	42.940223
5.350000	42.940223
5.360000	42.940223
5.370000	42.940223
5.380000	42.940223
5.390000	42.940223
5.400000	42.940223
5.410000	42.940223
5.420000	42.940223
5.430000	42.940223
5.440000	42.940223
5.450000	42.940223
5.460000	42.940223
5.470000	42.940223
5.480000	42.940223
5.490000	42.940223
5.500000	43.586503
5.510000	43.586503
5.520000	43.586503
5.530000	43.586503
5.540000	43.586503
5.550000	43.586503
5.560000	43.586503
5.570000	43.586503
5.580000	43.586503
5.590000	43.586503
5.600000	43.586503
5.610000	43.586503
5.620000	43.586503
5.630000	43.586503
5.640000	43.586503
5.650000	43.586503
5.660000	43.586503
5.670000	43.586503
5.680000	43.586503
5.690000	43.586503
5.700000	43.586503
5.710000	43.586503
5.720000	43.586503
5.730000	43.586503
5.740000	43.586503
5.750000	43.586503
5.760000	43.586503
5.770000	43.586503
5.780000	43.586503
5.790000	43.586503
5.800000	43.586503
5.810000	43.586503
5.820000	43.586503
5.830000	43.586503
5.840000	43.586503
5.850000	43.586503
5.860000	43.586503
5.870000	43.586503
5.880000	43.586503
5.890000	43.586503
5.900000	43.586503
5.910000	43.586503
5.920000	43.586503
5.930000	43.586503
5.940000	43.586503
5.950000	43.586503
5.960000	43.586503
5.970000	43.586503
5.980000	43.586503
5.990000	43.586503
6.000000	43.988993
6.010000	43.988993
6.020000	43.988993
6.030000	43.988993
6.040000	43.988993
6.050000	43.988993
6.060000	43.988993
6.070000	43.988993
6.080000	43.988993
6.090000	43.988993
6.100000	43.988993
6.110000	43.988993
6.120000	43.988993
6.130000	43.988993
6.140000	43.988993
6.150000	43.988993
6.160000	43.988993
6.170000	43.988993
6.180000	43.988993
6.190000	43.988993
6.200000	43.988993
6.210000	43.988993
6.220000	43.988993
6.230000	43.988993
6.240000	43.988993
6.250000	43.988993
6.260000	43.988993
6.270000	43.988993
6.280000	43.988993
6.290000	43.988993
6.300000	43.988993
6.310000	43.988993
6.320000	43.988993
6.330000	43.988993
6.340000	43.988993
6.350000	43.988993
6.360000	43.988993
6.370000	43.988993
6.380000	43.988993
6.390000	43.988993
6.400000	43.988993
6.410000	43.988993
6.420000	43.988993
6.430000	43.988993
6.440000	43.988993
6.450000	43.988993
6.460000	43.988993
6.470000	43.988993
6.480000	43.988993
6.490000	43.988993
6.500000	44.197815
6.510000	44.197815
6.520000	44.197815
6.530000	44.197815
6.540000	44.197815
6.550000	44.197815
6.560000	44.197815
6.570000	44.197815
6.580000	44.197815
6.590000	44.197815
6.600000	44.197815
6.610000	44.197815
6.620000	44.197815
6.630000	44.197815
6.640000	44.197815
6.650000	44.197815
6.660000	44.197815
6.670000	44.197815
6.680000	44.197815
6.690000	44.197815
6.700000	44.197815
6.710000	44.197815
6.720000	44.197815
6.730000	44.197815
6.740000	44.197815
6.750000	44.197815
6.760000	44.197815
6.770000	44.197815
6.780000	44.197815
6.790000	44.197815
6.800000	44.197815
6.810000	44.197815
6.820000	44.197815
6.830000	44.197815
6.840000	44.197815
6.850000	44.197815
6.860000	44.197815
6.870000	44.197815
6.880000	44.197815
6.890000	44.197815
6.900000	44.197815
6.910000	44.197815
6.920000	44.197815
6.930000	44.197815
6.940000	44.197815
6.950000	44.197815
6.960000	44.197815
6.970000	44.197815
6.980000	44.197815
6.990000	44.197815
7.000000	44.255002
7.010000	44.255002
7.020000	44.255002
7.030000	44.255002
7.040000	44.255002
7.050000	44.255002
7.060000	44.255002
7.070000	44.255002
7.080000	44.255002
7.090000	44.255002
7.100000	44.255002
7.110000	44.255002
7.120000	44.255002
7.130000	44.255002
7.140000	44.255002
7.150000	44.255002
7.160000	44.255002
7.170000	44.255002
7.180000	44.255002
7.190000	44.255002
7.200000	44.255002
7.210000	44.255002
7.220000	44.255002
7.230000	44.255002
7.240000	44.255002
7.250000	44.255002
7.260000	44.255002
7.270000	44.255002
7.280000	44.255002
7.290000	44.255002
7.300000	44.255002
7.310000	44.255002
7.320000	44.255002
7.330000	44.255002
7.340000	44.255002
7.350000	44.255002
7.360000	44.255002
7.370000	44.255002
7.380000	44.255002
7.390000	44.255002
7.400000	44.255002
7.410000	44.255002
7.420000	44.255002
7.430000	44.255002
7.440000	44.255002
7.450000	44.255002
7.460000	44.255002
7.470000	44.255002
7.480000	44.255002
7.490000	44.255002
7.500000	44.194657
7.510000	44.194657
7.520000	44.194657
7.530000	44.194657
7.540000	44.194657
7.550000	44.194657
7.560000	44.194657
7.570000	44.194657
7.580000	44.194657
7.590000	44.194657
7.600000	44.194657
7.610000	44.194657
7.620000	44.194657
7.630000	44.194657
7.640000	44.194657
7.650000	44.194657
7.660000	44.194657
7.670000	44.194657
7.680000	44.194657
7.690000	44.194657
7.700000	44.194657
7.710000	44.194657
7.720000	44.194657
7.730000	44.194657
7.740000	44.194657
7.750000	44.194657
7.760000	44.194657
7.770000	44.194657
7.780000	44.194657
7.790000	44.194657
7.800000	44.194657
7.810000	44.194657
7.820000	44.194657
7.830000	44.194657
7.840000	44.194657
7.850000	44.194657
7.860000	44.194657
7.870000	44.194657
7.880000	44.194657
7.890000	44.194657
7.900000	44.194657
7.910000	44.194657
7.920000	44.194657
7.930000	44.194657
7.940000	44.194657
7.950000	44.194657
7.960000	44.194657
7.970000	44.194657
7.980000	44.194657
7.990000	44.194657
8.000000	44.060107
8.010000	44.060107
8.020000	44.060107
8.030000	44.060107
8.040000	44.060107
8.050000	44.060107
8.060000	44.060107
8.070000	44.060107
8.080000	44.060107
8.090000	44.060107
8.100000	44.060107
8.110000	44.060107
8.120000	44.060107
8.130000	44.060107
8.140000	44.060107
8.150000	44.060107
8.160000	44.060107
8.170000	44.060107
8.180000	44.060107
8.190000	44.060107
8.200000	44.060107
8.210000	44.060107
8.220000	44.060107
8.230000	44.060107
8.240000	44.060107
8.250000	44.060107
8.260000	44.060107
8.270000	44.060107
8.280000	44.060107
8.290000	44.060107
8.300000	44.060107
8.310000	44.060107
8.320000	44.060107
8.330000	44.060107
8.340000	44.060107
8.350000	44.060107
8.360000	44.060107
8.370000	44.060107
8.380000	44.060107
8.390000	44.060107
8.400000	44.060107
8.410000	44.060107
8.420000	44.060107
8.430000	44.060107
8.440000	44.060107
8.450000	44.060107
8.460000	44.060107
8.470000	44.060107
8.480000	44.060107
8.490000	44.060107
8.500000	43.861349
8.510000	43.861349
8.520000	43.861349
8.530000	43.861349
8.540000	43.861349
8.550000	43.861349
8.560000	43.861349
8.570000	43.861349
8.580000	43.861349
8.590000	43.861349
8.600000	43.861349
8.610000	43.861349
8.620000	43.861349
8.630000	43.861349
8.640000	43.861349
8.650000	43.861349
8.660000	43.861349
8.670000	43.861349
8.680000	43.861349
8.690000	43.861349
8.700000	43.861349
8.710000	43.861349
8.720000	43.861349
8.730000	43.861349
8.740000	43.861349
8.750000	43.861349
8.760000	43.861349
8.770000	43.861349
8.780000	43.861349
8.790000	43.861349
8.800000	43.861349
8.810000	43.861349
8.820000	43.861349
8.830000	43.861349
8.840000	43.861349
8.850000	43.861349
8.860000	43.861349
8.870000	43.861349
8.880000	43.861349
8.890000	43.861349
8.900000	43.861349
8.910000	43.861349
8.920000	43.861349
8.930000	43.861349
8.940000	43.861349
8.950000	43.861349
8.960000	43.861349
8.970000	43.861349
8.980000	43.861349
8.990000	43.861349
9.000000	43.626624
9.010000	43.626624
9.020000	43.626624
9.030000	43.626624
9.040000	43.626624
9.050000	43.626624
9.060000	43.626624
9.070000	43.626624
9.080000	43.626624
9.090000	43.626624
9.100000	43.626624
9.110000	43.626624
9.120000	43.626624
9.130000	43.626624
9.140000	43.626624
9.150000	43.626624
9.160000	43.626624
9.170000	43.626624
9.180000	43.626624
9.190000	43.626624
9.200000	43.626624
9.210000	43.626624
9.220000	43.626624
9.230000	43.626624
9.240000	43.626624
9.250000	43.626624
9.260000	43.626624
9.270000	43.626624
9.280000	43.626624
9.290000	43.626624
9.300000	43.626624
9.310000	43.626624
9.320000	43.626624
9.330000	43.626624
9.340000	43.626624
9.350000	43.626624
9.360000	43.626624
9.370000	43.626624
9.380000	43.626624
9.390000	43.626624
9.400000	43.626624
9.410000	43.626624
9.420000	43.626624
9.430000	43.626624
9.440000	43.626624
9.450000	43.626624
9.460000	43.626624
9.470000	43.626624
9.480000	43.626624
9.490000	43.626624
9.500000	43.364620
9.510000	43.364620
9.520000	43.364620
9.530000	43.364620
9.540000	43.364620
9.550000	43.364620
9.560000	43.364620
9.570000	43.364620
9.580000	43.364620
9.590000	43.364620
9.600000	43.364620
9.610000	43.364620
9.620000	43.364620
9.630000	43.364620
9.640000	43.364620
9.650000	43.364620
9.660000	43.364620
9.670000	43.364620
9.680000	43.364620
9.690000	43.364620
9.700000	43.364620
9.710000	43.364620
9.720000	43.364620
9.730000	43.364620
9.740000	43.364620
9.750000	43.364620
9.760000	43.364620
9.770000	43.364620
9.780000	43.364620
9.790000	43.364620
9.800000	43.364620
9.810000	43.364620
9.820000	43.364620
9.830000	43.364620
9.840000	43.364620
9.850000	43.364620
9.860000	43.364620
9.870000	43.364620
9.880000	43.364620
9.890000	43.364620
9.900000	43.364620
9.910000	43.364620
9.920000	43.364620
9.930000	43.364620
9.940000	43.364620
9.950000	43.364620
9.960000	43.364620
9.970000	43.364620
9.980000	43.364620
9.990000	43.364620
10.000000	43.081809
10.010000	43.081809
10.020000	43.081809
10.030000	43.081809
10.040000	43.081809
10.050000	43.081809
10.060000	43.081809
10.070000	43.081809
10.080000	43.081809
10.090000	43.081809
10.100000	43.081809
10.110000	43.081809
10.120000	43.081809
10.130000	43.081809
10.140000	43.081809
10.150000	43.081809
10.160000	43.081809
10.170000	43.081809
10.180000	43.081809
10.190000	43.081809
10.200000	43.081809
10.210000	43.081809
10.220000	43.081809
10.230000	43.081809
10.240000	43.081809
10.250000	43.081809
10.260000	43.081809
10.270000	43.081809
10.280000	43.081809
10.290000	43.081809
10.300000	43.081809
10.310000	43.081809
10.320000	43.081809
10.330000	43.081809
10.340000	43.081809
10.350000	43.081809
10.360000	43.081809
10.370000	43.081809
10.380000	43.081809
10.390000	43.081809
10.400000	43.081809
10.410000	43.081809
10.420000	43.081809
10.430000	43.081809
10.440000	43.081809
10.450000	43.081809
10.460000	43.081809
10.470000	43.081809
10.480000	43.081809
10.490000	43.081809
10.500000	42.785729
10.510000	42.785729
10.520000	42.785729
10.530000	42.785729
10.540000	42.785729
10.550000	42.785729
10.560000	42.785729
10.570000	42.785729
10.580000	42.785729
10.590000	42.785729
10.600000	42.785729
10.610000	42.785729
10.620000	42.785729
10.630000	42.785729
10.640000	42.785729
10.650000	42.785729
10.660000	42.785729
10.670000	42.785729
10.680000	42.785729
10.690000	42.785729
10.700000	42.785729
10.710000	42.785729
10.720000	42.785729
10.730000	42.785729
10.740000	42.785729
10.750000	42.785729
10.760000	42.785729
10.770000	42.785729
10.780000	42.785729
10.790000	42.785729
10.800000	42.785729
10.810000	42.785729
10.820000	42.785729
10.830000	42.785729
10.840000	42.785729
10.850000	42.785729
10.860000	42.785729
10.870000	42.785729
10.880000	42.785729
10.890000	42.785729
10.900000	42.785729
10.910000	42.785729
10.920000	42.785729
10.930000	42.785729
10.940000	42.785729
10.950000	42.785729
10.960000	42.785729
10.970000	42.785729
10.980000	42.785729
10.990000	42.785729
11.000000	42.474908
11.010000	42.474908
11.020000	42.474908
11.030000	42.474908
11.040000	42.474908
11.050000	42.474908
11.060000	42.474908
11.070000	42.474908
11.080000	42.474908
11.090000	42.474908
11.100000	42.474908
11.110000	42.474908
11.120000	42.474908
11.130000	42.474908
11.140000	42.474908
11.150000	42.474908
11.160000	42.474908
11.170000	42.474908
11.180000	42.474908
11.190000	42.474908
11.200000	42.474908
11.210000	42.474908
11.220000	42.474908
11.230000	42.474908
11.240000	42.474908
11.250000	42.474908
11.260000	42.474908
11.270000	42.474908
11.280000	42.474908
11.290000	42.474908
11.300000	42.474908
11.310000	42.474908
11.320000	42.474908
11.330000	42.474908
11.340000	42.474908
11.350000	42.474908
11.360000	42.474908
11.370000	42.474908
11.380000	42.474908
11.390000	42.474908
11.400000	42.474908
11.410000	42.474908
11.420000	42.474908
11.430000	42.474908
11.440000	42.474908
11.450000	42.474908
11.460000	42.474908
11.470000	42.474908
11.480000	42.474908
11.490000	42.474908
11.500000	42.154530
11.510000	42.154530
11.520000	42.154530
11.530000	42.154530
11.540000	42.154530
11.550000	42.154530
11.560000	42.154530
11.570000	42.154530
11.580000	42.154530
11.590000	42.154530
11.600000	42.154530
11.610000	42.154530
11.620000	42.154530
11.630000	42.154530
11.640000	42.154530
11.650000	42.154530
11.660000	42.154530
11.670000	42.154530
11.680000	42.154530
11.690000	42.154530
11.700000	42.154530
11.710000	42.154530
11.720000	42.154530
11.730000	42.154530
11.740000	42.154530
11.750000	42.154530
11.760000	42.154530
11.770000	42.154530
11.780000	42.154530
11.790000	42.154530
11.800000	42.154530
11.810000	42.154530
11.820000	42.154530
11.830000	42.154530
11.840000	42.154530
11.850000	42.154530
11.860000	42.154530
11.870000	42.154530
11.880000	42.154530
11.890000	42.154530
11.900000	42.154530
11.910000	42.154530
11.920000	42.154530
11.930000	42.154530
11.940000	42.154530
11.950000	42.154530
11.960000	42.154530
11.970000	42.154530
11.980000	42.154530
11.990000	42.154530
12.000000	41.831515
12.010000	41.831515
12.020000	41.831515
12.030000	41.831515
12.040000	41.831515
12.050000	41.831515
12.060000	41.831515
12.070000	41.831515
12.080000	41.831515
12.090000	41.831515
12.100000	41.831515
12.110000	41.831515
12.120000	41.831515
12.130000	41.831515
12.140000	41.831515
12.150000	41.831515
12.160000	41.831515
12.170000	41.831515
12.180000	41.831515
12.190000	41.831515
12.200000	41.831515
12.210000	41.831515
12.220000	41.831515
12.230000	41.831515
12.240000	41.831515
12.250000	41.831515
12.260000	41.831515
12.270000	41.831515
12.280000	41.831515
12.290000	41.831515
12.300000	41.831515
12.310000	41.831515
12.320000	41.831515
12.330000	41.831515
12.340000	41.831515
12.350000	41.831515
12.360000	41.831515
12.370000	41.831515
12.380000	41.831515
12.390000	41.831515
12.400000	41.831515
12.410000	41.831515
12.420000	41.831515
12.430000	41.831515
12.440000	41.831515
12.450000	41.831515
12.460000	41.831515
12.470000	41.831515
12.480000	41.831515
12.490000	41.831515
12.500000	41.507111
12.510000	41.507111
12.520000	41.507111
12.530000	41.507111
12.540000	41.507111
12.550000	41.507111
12.560000	41.507111
12.570000	41.507111
12.580000	41.507111
12.590000	41.507111
12.600000	41.507111
12.610000	41.507111
12.620000	41.507111
12.630000	41.507111
12.640000	41.507111
12.650000	41.507111
12.660000	41.507111
12.670000	41.507111
12.680000	41.507111
12.690000	41.507111
12.700000	41.507111
12.710000	41.507111
12.720000	41.507111
12.730000	41.507111
12.740000	41.507111
12.750000	41.507111
12.760000	41.507111
12.770000	41.507111
12.780000	41.507111
12.790000	41.507111
12.800000	41.507111
12.810000	41.507111
12.820000	41.507111
12.830000	41.507111
12.840000	41.507111
12.850000	41.507111
12.860000	41.507111
12.870000	41.507111
12.880000	41.507111
12.890000	41.507111
12.900000	41.507111
12.910000	41.507111
12.920000	41.507111
12.930000	41.507111
12.940000	41.507111
12.950000	41.507111
12.960000	41.507111
12.970000	41.507111
12.980000	41.507111
12.990000	41.507111
13.000000	41.180906
13.010000	41.180906
13.020000	41.180906
13.030000	41.180906
13.040000	41.180906
13.050000	41.180906
13.060000	41.180906
13.070000	41.180906
13.080000	41.180906
13.090000	41.180906
13.100000	41.180906
13.110000	41.180906
13.120000	41.180906
13.130000	41.180906
13.140000	41.180906
13.150000	41.180906
13.160000	41.180906
13.170000	41.180906
13.180000	41.180906
13.190000	41.180906
13.200000	41.180906
13.210000	41.180906
13.220000	41.180906
13.230000	41.180906
13.240000	41.180906
13.250000	41.180906
13.260000	41.180906
13.270000	41.180906
13.280000	41.180906
13.290000	41.180906
13.300000	41.180906
13.310000	41.180906
13.320000	41.180906
13.330000	41.180906
13.340000	41.180906
13.350000	41.180906
13.360000	41.180906
13.370000	41.180906
13.380000	41.180906
13.390000	41.180906
13.400000	41.180906
13.410000	41.180906
13.420000	41.180906
13.430000	41.180906
13.440000	41.180906
13.450000	41.180906
13.460000	41.180906
13.470000	41.180906
13.480000	41.180906
13.490000	41.180906
13.500000	40.855883
13.510000	40.855883
13.520000	40.855883
13.530000	40.855883
13.540000	40.855883
13.550000	40.855883
13.560000	40.855883
13.570000	40.855883
13.580000	40.855883
13.590000	40.855883
13.600000	40.855883
13.610000	40.855883
13.620000	40.855883
13.630000	40.855883
13.640000	40.855883
13.650000	40.855883
13.660000	40.855883
13.670000	40.855883
13.680000	40.855883
13.690000	40.855883
13.700000	40.855883
13.710000	40.855883
13.720000	40.855883
13.730000	40.855883
13.740000	40.855883
13.750000	40.855883
13.760000	40.855883
13.770000	40.855883
13.780000	40.855883
13.790000	40.855883
13.800000	40.855883
13.810000	40.855883
13.820000	40.855883
13.830000	40.855883
13.840000	40.855883
13.850000	40.855883
13.860000	40.855883
13.870000	40.855883
13.880000	40.855883
13.890000	40.855883
13.900000	40.855883
13.910000	40.855883
13.920000	40.855883
13.930000	40.855883
13.940000	40.855883
13.950000	40.855883
13.960000	40.855883
13.970000	40.855883
13.980000	40.855883
13.990000	40.855883
14.000000	40.535067
14.010000	40.535067
14.020000	40.535067
14.030000	40.535067
14.040000	40.535067
14.050000	40.535067
14.060000	40.535067
14.070000	40.535067
14.080000	40.535067
14.090000	40.535067
14.100000	40.535067
14.110000	40.535067
14.120000	40.535067
14.130000	40.535067
14.140000	40.535067
14.150000	40.535067
14.160000	40.535067
14.170000	40.535067
14.180000	40.535067
14.190000	40.535067
14.200000	40.535067
14.210000	40.535067
14.220000	40.535067
14.230000	40.535067
14.240000	40.535067
14.250000	40.535067
14.260000	40.535067
14.270000	40.535067
14.280000	40.535067
14.290000	40.535067
14.300000	40.535067
14.310000	40.535067
14.320000	40.535067
14.330000	40.535067
14.340000	40.535067
14.350000	40.535067
14.360000	40.535067
14.370000	40.535067
14.380000	40.535067
14.390000	40.535067
14.400000	40.535067
14.410000	40.535067
14.420000	40.535067
14.430000	40.535067
14.440000	40.535067
14.450000	40.535067
14.460000	40.535067
14.470000	40.535067
14.480000	40.535067
14.490000	40.535067
14.500000	40.214310
14.510000	40.214310
14.520000	40.214310
14.530000	40.214310
14.540000	40.214310
14.550000	40.214310
14.560000	40.214310
14.570000	40.214310
14.580000	40.214310
14.590000	40.214310
14.600000	40.214310
14.610000	40.214310
14.620000	40.214310
14.630000	40.214310
14.640000	40.214310
14.650000	40.214310
14.660000	40.214310
14.670000	40.214310
14.680000	40.214310
14.690000	40.214310
14.700000	40.214310
14.710000	40.214310
14.720000	40.214310
14.730000	40.214310
14.740000	40.214310
14.750000	40.214310
14.760000	40.214310
14.770000	40.214310
14.780000	40.214310
14.790000	40.214310
14.800000	40.214310
14.810000	40.214310
14.820000	40.214310
14.830000	40.214310
14.840000	40.214310
14.850000	40.214310
14.860000	40.214310
14.870000	40.214310
14.880000	40.214310
14.890000	40.214310
14.900000	40.214310
14.910000	40.214310
14.920000	40.214310
14.930000	40.214310
14.940000	40.214310
14.950000	40.214310
14.960000	40.214310
14.970000	40.214310
14.980000	40.214310
14.990000	40.214310
15.000000	39.897240
15.010000	39.897240
15.020000	39.897240
15.030000	39.897240
15.040000	39.897240
15.050000	39.897240
15.060000	39.897240
15.070000	39.897240
15.080000	39.897240
15.090000	39.897240
15.100000	39.897240
15.110000	39.897240
15.120000	39.897240
15.130000	39.897240
15.140000	39.897240
15.150000	39.897240
15.160000	39.897240
15.170000	39.897240
15.180000	39.897240
15.190000	39.897240
15.200000	39.897240
15.210000	39.897240
15.220000	39.897240
15.230000	39.897240
15.240000	39.897240
15.250000	39.897240
15.260000	39.897240
15.270000	39.897240
15.280000	39.897240
15.290000	39.897240
15.300000	39.897240
15.310000	39.897240
15.320000	39.897240
15.330000	39.897240
15.340000	39.897240
15.350000	39.897240
15.360000	39.897240
15.370000	39.897240
15.380000	39.897240
15.390000	39.897240
15.400000	39.897240
15.410000	39.897240
15.420000	39.897240
15.430000	39.897240
15.440000	39.897240
15.450000	39.897240
15.460000	39.897240
15.470000	39.897240
15.480000	39.897240
15.490000	39.897240
15.500000	39.596505
15.510000	39.596505
15.520000	39.596505
15.530000	39.596505
15.540000	39.596505
15.550000	39.596505
15.560000	39.596505
15.570000	39.596505
15.580000	39.596505
15.590000	39.596505
15.600000	39.596505
15.610000	39.596505
15.620000	39.596505
15.630000	39.596505
15.640000	39.596505
15.650000	39.596505
15.660000	39.596505
15.670000	39.596505
15.680000	39.596505
15.690000	39.596505
15.700000	39.596505
15.710000	39.596505
15.720000	39.596505
15.730000	39.596505
15.740000	39.596505
15.750000	39.596505
15.760000	39.596505
15.770000	39.596505
15.780000	39.596505
15.790000	39.596505
15.800000	39.596505
15.810000	39.596505
15.820000	39.596505
15.830000	39.596505
15.840000	39.596505
15.850000	39.596505
15.860000	39.596505
15.870000	39.596505
15.880000	39.596505
15.890000	39.596505
15.900000	39.596505
15.910000	39.596505
15.920000	39.596505
15.930000	39.596505
15.940000	39.596505
15.950000	39.596505
15.960000	39.596505
15.970000	39.596505
15.980000	39.596505
15.990000	39.596505
16.000000	39.309962
16.010000	39.309962
16.020000	39.309962
16.030000	39.309962
16.040000	39.309962
16.050000	39.309962
16.060000	39.309962
16.070000	39.309962
16.080000	39.309962
16.090000	39.309962
16.100000	39.309962
16.110000	39.309962
16.120000	39.309962
16.130000	39.309962
16.140000	39.309962
16.150000	39.309962
16.160000	39.309962
16.170000	39.309962
16.180000	39.309962
16.190000	39.309962
16.200000	39.309962
16.210000	39.309962
16.220000	39.309962
16.230000	39.309962
16.240000	39.309962
16.250000	39.309962
16.260000	39.309962
16.270000	39.309962
16.280000	39.309962
16.290000	39.309962
16.300000	39.309962
16.310000	39.309962
16.320000	39.309962
16.330000	39.309962
16.340000	39.309962
16.350000	39.309962
16.360000	39.309962
16.370000	39.309962
16.380000	39.309962
16.390000	39.309962
16.400000	39.309962
16.410000	39.309962
16.420000	39.309962
16.430000	39.309962
16.440000	39.309962
16.450000	39.309962
16.460000	39.309962
16.470000	39.309962
16.480000	39.309962
16.490000	39.309962
16.500000	39.034262
16.510000	39.034262
16.520000	39.034262
16.530000	39.034262
16.540000	39.034262
16.550000	39.034262
16.560000	39.034262
16.570000	39.034262
16.580000	39.034262
16.590000	39.034262
16.600000	39.034262
16.610000	39.034262
16.620000	39.034262
16.630000	39.034262
16.640000	39.034262
16.650000	39.034262
16.660000	39.034262
16.670000	39.034262
16.680000	39.034262
16.690000	39.034262
16.700000	39.034262
16.710000	39.034262
16.720000	39.034262
16.730000	39.034262
16.740000	39.034262
16.750000	39.034262
16.760000	39.034262
16.770000	39.034262
16.780000	39.034262
16.790000	39.034262
16.800000	39.034262
16.810000	39.034262
16.820000	39.034262
16.830000	39.034262
16.840000	39.034262
16.850000	39.034262
16.860000	39.034262
16.870000	39.034262
16.880000	39.034262
16.890000	39.034262
16.900000	39.034262
16.910000	39.034262
16.920000	39.034262
16.930000	39.034262
16.940000	39.034262
16.950000	39.034262
16.960000	39.034262
16.970000	39.034262
16.980000	39.034262
16.990000	39.034262
17.000000	38.766421
17.010000	38.766421
17.020000	38.766421
17.030000	38.766421
17.040000	38.766421
17.050000	38.766421
17.060000	38.766421
17.070000	38.766421
17.080000	38.766421
17.090000	38.766421
17.100000	38.766421
17.110000	38.766421
17.120000	38.766421
17.130000	38.766421
17.140000	38.766421
17.150000	38.766421
17.160000	38.766421
17.170000	38.766421
17.180000	38.766421
17.190000	38.766421
17.200000	38.766421
17.210000	38.766421
17.220000	38.766421
17.230000	38.766421
17.240000	38.766421
17.250000	38.766421
17.260000	38.766421
17.270000	38.766421
17.280000	38.766421
17.290000	38.766421
17.300000	38.766421
17.310000	38.766421
17.320000	38.766421
17.330000	38.766421
17.340000	38.766421
17.350000	38.766421
17.360000	38.766421
17.370000	38.766421
17.380000	38.766421
17.390000	38.766421
17.400000	38.766421
17.410000	38.766421
17.420000	38.766421
17.430000	38.766421
17.440000	38.766421
17.450000	38.766421
17.460000	38.766421
17.470000	38.766421
17.480000	38.766421
17.490000	38.766421
