LabVIEW Measurement	
Writer_Version	2
Reader_Version	2
Separator	Tab
Decimal_Separator	.
Multi_Headings	No
X_Columns	One
Time_Pref	Absolute
Operator	biomech-dyno
Date	2023/04/27
Time	17:41:55.9338632999999876419
***End_of_Header***	
	
Channels	1	
Samples	10	
Date	2023/04/27	
Time	18:08:33.1668812999998669865	
X_Dimension	Time	
X0	0.0000000000000000E+0	
Delta_X	0.010000	
***End_of_Header***		
X_Value	Untitled	Comment
0.000000	25.126865
0.010000	25.126865
0.020000	25.126865
0.030000	25.126865
0.040000	25.126865
0.050000	25.126865
0.060000	25.126865
0.070000	25.126865
0.080000	25.126865
0.090000	25.126865
0.100000	25.126865
0.110000	25.126865
0.120000	25.126865
0.130000	25.126865
0.140000	25.126865
0.150000	25.126865
0.160000	25.126865
0.170000	25.126865
0.180000	25.126865
0.190000	25.126865
0.200000	25.126865
0.210000	25.126865
0.220000	25.126865
0.230000	25.126865
0.240000	25.126865
0.250000	25.126865
0.260000	25.126865
0.270000	25.126865
0.280000	25.126865
0.290000	25.126865
0.300000	25.126865
0.310000	25.126865
0.320000	25.126865
0.330000	25.126865
0.340000	25.126865
0.350000	25.126865
0.360000	25.126865
0.370000	25.126865
0.380000	25.126865
0.390000	25.126865
0.400000	25.126865
0.410000	25.126865
0.420000	25.126865
0.430000	25.126865
0.440000	25.126865
0.450000	25.126865
0.460000	25.126865
0.470000	25.126865
0.480000	25.126865
0.490000	25.126865
0.500000	25.166787
0.510000	25.166787
0.520000	25.166787
0.530000	25.166787
0.540000	25.166787
0.550000	25.166787
0.560000	25.166787
0.570000	25.166787
0.580000	25.166787
0.590000	25.166787
0.600000	25.166787
0.610000	25.166787
0.620000	25.166787
0.630000	25.166787
0.640000	25.166787
0.650000	25.166787
0.660000	25.166787
0.670000	25.166787
0.680000	25.166787
0.690000	25.166787
0.700000	25.166787
0.710000	25.166787
0.720000	25.166787
0.730000	25.166787
0.740000	25.166787
0.750000	25.166787
0.760000	25.166787
0.770000	25.166787
0.780000	25.166787
0.790000	25.166787
0.800000	25.166787
0.810000	25.166787
0.820000	25.166787
0.830000	25.166787
0.840000	25.166787
0.850000	25.166787
0.860000	25.166787
0.870000	25.166787
0.880000	25.166787
0.890000	25.166787
0.900000	25.166787
0.910000	25.166787
0.920000	25.166787
0.930000	25.166787
0.940000	25.166787
0.950000	25.166787
0.960000	25.166787
0.970000	25.166787
0.980000	25.166787
0.990000	25.166787
1.000000	25.707136
1.010000	25.707136
1.020000	25.707136
1.030000	25.707136
1.040000	25.707136
1.050000	25.707136
1.060000	25.707136
1.070000	25.707136
1.080000	25.707136
1.090000	25.707136
1.100000	25.707136
1.110000	25.707136
1.120000	25.707136
1.130000	25.707136
1.140000	25.707136
1.150000	25.707136
1.160000	25.707136
1.170000	25.707136
1.180000	25.707136
1.190000	25.707136
1.200000	25.707136
1.210000	25.707136
1.220000	25.707136
1.230000	25.707136
1.240000	25.707136
1.250000	25.707136
1.260000	25.707136
1.270000	25.707136
1.280000	25.707136
1.290000	25.707136
1.300000	25.707136
1.310000	25.707136
1.320000	25.707136
1.330000	25.707136
1.340000	25.707136
1.350000	25.707136
1.360000	25.707136
1.370000	25.707136
1.380000	25.707136
1.390000	25.707136
1.400000	25.707136
1.410000	25.707136
1.420000	25.707136
1.430000	25.707136
1.440000	25.707136
1.450000	25.707136
1.460000	25.707136
1.470000	25.707136
1.480000	25.707136
1.490000	25.707136
1.500000	26.990498
1.510000	26.990498
1.520000	26.990498
1.530000	26.990498
1.540000	26.990498
1.550000	26.990498
1.560000	26.990498
1.570000	26.990498
1.580000	26.990498
1.590000	26.990498
1.600000	26.990498
1.610000	26.990498
1.620000	26.990498
1.630000	26.990498
1.640000	26.990498
1.650000	26.990498
1.660000	26.990498
1.670000	26.990498
1.680000	26.990498
1.690000	26.990498
1.700000	26.990498
1.710000	26.990498
1.720000	26.990498
1.730000	26.990498
1.740000	26.990498
1.750000	26.990498
1.760000	26.990498
1.770000	26.990498
1.780000	26.990498
1.790000	26.990498
1.800000	26.990498
1.810000	26.990498
1.820000	26.990498
1.830000	26.990498
1.840000	26.990498
1.850000	26.990498
1.860000	26.990498
1.870000	26.990498
1.880000	26.990498
1.890000	26.990498
1.900000	26.990498
1.910000	26.990498
1.920000	26.990498
1.930000	26.990498
1.940000	26.990498
1.950000	26.990498
1.960000	26.990498
1.970000	26.990498
1.980000	26.990498
1.990000	26.990498
2.000000	28.884344
2.010000	28.884344
2.020000	28.884344
2.030000	28.884344
2.040000	28.884344
2.050000	28.884344
2.060000	28.884344
2.070000	28.884344
2.080000	28.884344
2.090000	28.884344
2.100000	28.884344
2.110000	28.884344
2.120000	28.884344
2.130000	28.884344
2.140000	28.884344
2.150000	28.884344
2.160000	28.884344
2.170000	28.884344
2.180000	28.884344
2.190000	28.884344
2.200000	28.884344
2.210000	28.884344
2.220000	28.884344
2.230000	28.884344
2.240000	28.884344
2.250000	28.884344
2.260000	28.884344
2.270000	28.884344
2.280000	28.884344
2.290000	28.884344
2.300000	28.884344
2.310000	28.884344
2.320000	28.884344
2.330000	28.884344
2.340000	28.884344
2.350000	28.884344
2.360000	28.884344
2.370000	28.884344
2.380000	28.884344
2.390000	28.884344
2.400000	28.884344
2.410000	28.884344
2.420000	28.884344
2.430000	28.884344
2.440000	28.884344
2.450000	28.884344
2.460000	28.884344
2.470000	28.884344
2.480000	28.884344
2.490000	28.884344
2.500000	31.246575
2.510000	31.246575
2.520000	31.246575
2.530000	31.246575
2.540000	31.246575
2.550000	31.246575
2.560000	31.246575
2.570000	31.246575
2.580000	31.246575
2.590000	31.246575
2.600000	31.246575
2.610000	31.246575
2.620000	31.246575
2.630000	31.246575
2.640000	31.246575
2.650000	31.246575
2.660000	31.246575
2.670000	31.246575
2.680000	31.246575
2.690000	31.246575
2.700000	31.246575
2.710000	31.246575
2.720000	31.246575
2.730000	31.246575
2.740000	31.246575
2.750000	31.246575
2.760000	31.246575
2.770000	31.246575
2.780000	31.246575
2.790000	31.246575
2.800000	31.246575
2.810000	31.246575
2.820000	31.246575
2.830000	31.246575
2.840000	31.246575
2.850000	31.246575
2.860000	31.246575
2.870000	31.246575
2.880000	31.246575
2.890000	31.246575
2.900000	31.246575
2.910000	31.246575
2.920000	31.246575
2.930000	31.246575
2.940000	31.246575
2.950000	31.246575
2.960000	31.246575
2.970000	31.246575
2.980000	31.246575
2.990000	31.246575
3.000000	33.805484
3.010000	33.805484
3.020000	33.805484
3.030000	33.805484
3.040000	33.805484
3.050000	33.805484
3.060000	33.805484
3.070000	33.805484
3.080000	33.805484
3.090000	33.805484
3.100000	33.805484
3.110000	33.805484
3.120000	33.805484
3.130000	33.805484
3.140000	33.805484
3.150000	33.805484
3.160000	33.805484
3.170000	33.805484
3.180000	33.805484
3.190000	33.805484
3.200000	33.805484
3.210000	33.805484
3.220000	33.805484
3.230000	33.805484
3.240000	33.805484
3.250000	33.805484
3.260000	33.805484
3.270000	33.805484
3.280000	33.805484
3.290000	33.805484
3.300000	33.805484
3.310000	33.805484
3.320000	33.805484
3.330000	33.805484
3.340000	33.805484
3.350000	33.805484
3.360000	33.805484
3.370000	33.805484
3.380000	33.805484
3.390000	33.805484
3.400000	33.805484
3.410000	33.805484
3.420000	33.805484
3.430000	33.805484
3.440000	33.805484
3.450000	33.805484
3.460000	33.805484
3.470000	33.805484
3.480000	33.805484
3.490000	33.805484
3.500000	35.937259
3.510000	35.937259
3.520000	35.937259
3.530000	35.937259
3.540000	35.937259
3.550000	35.937259
3.560000	35.937259
3.570000	35.937259
3.580000	35.937259
3.590000	35.937259
3.600000	35.937259
3.610000	35.937259
3.620000	35.937259
3.630000	35.937259
3.640000	35.937259
3.650000	35.937259
3.660000	35.937259
3.670000	35.937259
3.680000	35.937259
3.690000	35.937259
3.700000	35.937259
3.710000	35.937259
3.720000	35.937259
3.730000	35.937259
3.740000	35.937259
3.750000	35.937259
3.760000	35.937259
3.770000	35.937259
3.780000	35.937259
3.790000	35.937259
3.800000	35.937259
3.810000	35.937259
3.820000	35.937259
3.830000	35.937259
3.840000	35.937259
3.850000	35.937259
3.860000	35.937259
3.870000	35.937259
3.880000	35.937259
3.890000	35.937259
3.900000	35.937259
3.910000	35.937259
3.920000	35.937259
3.930000	35.937259
3.940000	35.937259
3.950000	35.937259
3.960000	35.937259
3.970000	35.937259
3.980000	35.937259
3.990000	35.937259
4.000000	37.524037
4.010000	37.524037
4.020000	37.524037
4.030000	37.524037
4.040000	37.524037
4.050000	37.524037
4.060000	37.524037
4.070000	37.524037
4.080000	37.524037
4.090000	37.524037
4.100000	37.524037
4.110000	37.524037
4.120000	37.524037
4.130000	37.524037
4.140000	37.524037
4.150000	37.524037
4.160000	37.524037
4.170000	37.524037
4.180000	37.524037
4.190000	37.524037
4.200000	37.524037
4.210000	37.524037
4.220000	37.524037
4.230000	37.524037
4.240000	37.524037
4.250000	37.524037
4.260000	37.524037
4.270000	37.524037
4.280000	37.524037
4.290000	37.524037
4.300000	37.524037
4.310000	37.524037
4.320000	37.524037
4.330000	37.524037
4.340000	37.524037
4.350000	37.524037
4.360000	37.524037
4.370000	37.524037
4.380000	37.524037
4.390000	37.524037
4.400000	37.524037
4.410000	37.524037
4.420000	37.524037
4.430000	37.524037
4.440000	37.524037
4.450000	37.524037
4.460000	37.524037
4.470000	37.524037
4.480000	37.524037
4.490000	37.524037
4.500000	38.655392
4.510000	38.655392
4.520000	38.655392
4.530000	38.655392
4.540000	38.655392
4.550000	38.655392
4.560000	38.655392
4.570000	38.655392
4.580000	38.655392
4.590000	38.655392
4.600000	38.655392
4.610000	38.655392
4.620000	38.655392
4.630000	38.655392
4.640000	38.655392
4.650000	38.655392
4.660000	38.655392
4.670000	38.655392
4.680000	38.655392
4.690000	38.655392
4.700000	38.655392
4.710000	38.655392
4.720000	38.655392
4.730000	38.655392
4.740000	38.655392
4.750000	38.655392
4.760000	38.655392
4.770000	38.655392
4.780000	38.655392
4.790000	38.655392
4.800000	38.655392
4.810000	38.655392
4.820000	38.655392
4.830000	38.655392
4.840000	38.655392
4.850000	38.655392
4.860000	38.655392
4.870000	38.655392
4.880000	38.655392
4.890000	38.655392
4.900000	38.655392
4.910000	38.655392
4.920000	38.655392
4.930000	38.655392
4.940000	38.655392
4.950000	38.655392
4.960000	38.655392
4.970000	38.655392
4.980000	38.655392
4.990000	38.655392
5.000000	39.437205
5.010000	39.437205
5.020000	39.437205
5.030000	39.437205
5.040000	39.437205
5.050000	39.437205
5.060000	39.437205
5.070000	39.437205
5.080000	39.437205
5.090000	39.437205
5.100000	39.437205
5.110000	39.437205
5.120000	39.437205
5.130000	39.437205
5.140000	39.437205
5.150000	39.437205
5.160000	39.437205
5.170000	39.437205
5.180000	39.437205
5.190000	39.437205
5.200000	39.437205
5.210000	39.437205
5.220000	39.437205
5.230000	39.437205
5.240000	39.437205
5.250000	39.437205
5.260000	39.437205
5.270000	39.437205
5.280000	39.437205
5.290000	39.437205
5.300000	39.437205
5.310000	39.437205
5.320000	39.437205
5.330000	39.437205
5.340000	39.437205
5.350000	39.437205
5.360000	39.437205
5.370000	39.437205
5.380000	39.437205
5.390000	39.437205
5.400000	39.437205
5.410000	39.437205
5.420000	39.437205
5.430000	39.437205
5.440000	39.437205
5.450000	39.437205
5.460000	39.437205
5.470000	39.437205
5.480000	39.437205
5.490000	39.437205
5.500000	39.954372
5.510000	39.954372
5.520000	39.954372
5.530000	39.954372
5.540000	39.954372
5.550000	39.954372
5.560000	39.954372
5.570000	39.954372
5.580000	39.954372
5.590000	39.954372
5.600000	39.954372
5.610000	39.954372
5.620000	39.954372
5.630000	39.954372
5.640000	39.954372
5.650000	39.954372
5.660000	39.954372
5.670000	39.954372
5.680000	39.954372
5.690000	39.954372
5.700000	39.954372
5.710000	39.954372
5.720000	39.954372
5.730000	39.954372
5.740000	39.954372
5.750000	39.954372
5.760000	39.954372
5.770000	39.954372
5.780000	39.954372
5.790000	39.954372
5.800000	39.954372
5.810000	39.954372
5.820000	39.954372
5.830000	39.954372
5.840000	39.954372
5.850000	39.954372
5.860000	39.954372
5.870000	39.954372
5.880000	39.954372
5.890000	39.954372
5.900000	39.954372
5.910000	39.954372
5.920000	39.954372
5.930000	39.954372
5.940000	39.954372
5.950000	39.954372
5.960000	39.954372
5.970000	39.954372
5.980000	39.954372
5.990000	39.954372
6.000000	40.266139
6.010000	40.266139
6.020000	40.266139
6.030000	40.266139
6.040000	40.266139
6.050000	40.266139
6.060000	40.266139
6.070000	40.266139
6.080000	40.266139
6.090000	40.266139
6.100000	40.266139
6.110000	40.266139
6.120000	40.266139
6.130000	40.266139
6.140000	40.266139
6.150000	40.266139
6.160000	40.266139
6.170000	40.266139
6.180000	40.266139
6.190000	40.266139
6.200000	40.266139
6.210000	40.266139
6.220000	40.266139
6.230000	40.266139
6.240000	40.266139
6.250000	40.266139
6.260000	40.266139
6.270000	40.266139
6.280000	40.266139
6.290000	40.266139
6.300000	40.266139
6.310000	40.266139
6.320000	40.266139
6.330000	40.266139
6.340000	40.266139
6.350000	40.266139
6.360000	40.266139
6.370000	40.266139
6.380000	40.266139
6.390000	40.266139
6.400000	40.266139
6.410000	40.266139
6.420000	40.266139
6.430000	40.266139
6.440000	40.266139
6.450000	40.266139
6.460000	40.266139
6.470000	40.266139
6.480000	40.266139
6.490000	40.266139
6.500000	40.418444
6.510000	40.418444
6.520000	40.418444
6.530000	40.418444
6.540000	40.418444
6.550000	40.418444
6.560000	40.418444
6.570000	40.418444
6.580000	40.418444
6.590000	40.418444
6.600000	40.418444
6.610000	40.418444
6.620000	40.418444
6.630000	40.418444
6.640000	40.418444
6.650000	40.418444
6.660000	40.418444
6.670000	40.418444
6.680000	40.418444
6.690000	40.418444
6.700000	40.418444
6.710000	40.418444
6.720000	40.418444
6.730000	40.418444
6.740000	40.418444
6.750000	40.418444
6.760000	40.418444
6.770000	40.418444
6.780000	40.418444
6.790000	40.418444
6.800000	40.418444
6.810000	40.418444
6.820000	40.418444
6.830000	40.418444
6.840000	40.418444
6.850000	40.418444
6.860000	40.418444
6.870000	40.418444
6.880000	40.418444
6.890000	40.418444
6.900000	40.418444
6.910000	40.418444
6.920000	40.418444
6.930000	40.418444
6.940000	40.418444
6.950000	40.418444
6.960000	40.418444
6.970000	40.418444
6.980000	40.418444
6.990000	40.418444
7.000000	40.455710
7.010000	40.455710
7.020000	40.455710
7.030000	40.455710
7.040000	40.455710
7.050000	40.455710
7.060000	40.455710
7.070000	40.455710
7.080000	40.455710
7.090000	40.455710
7.100000	40.455710
7.110000	40.455710
7.120000	40.455710
7.130000	40.455710
7.140000	40.455710
7.150000	40.455710
7.160000	40.455710
7.170000	40.455710
7.180000	40.455710
7.190000	40.455710
7.200000	40.455710
7.210000	40.455710
7.220000	40.455710
7.230000	40.455710
7.240000	40.455710
7.250000	40.455710
7.260000	40.455710
7.270000	40.455710
7.280000	40.455710
7.290000	40.455710
7.300000	40.455710
7.310000	40.455710
7.320000	40.455710
7.330000	40.455710
7.340000	40.455710
7.350000	40.455710
7.360000	40.455710
7.370000	40.455710
7.380000	40.455710
7.390000	40.455710
7.400000	40.455710
7.410000	40.455710
7.420000	40.455710
7.430000	40.455710
7.440000	40.455710
7.450000	40.455710
7.460000	40.455710
7.470000	40.455710
7.480000	40.455710
7.490000	40.455710
7.500000	40.397317
7.510000	40.397317
7.520000	40.397317
7.530000	40.397317
7.540000	40.397317
7.550000	40.397317
7.560000	40.397317
7.570000	40.397317
7.580000	40.397317
7.590000	40.397317
7.600000	40.397317
7.610000	40.397317
7.620000	40.397317
7.630000	40.397317
7.640000	40.397317
7.650000	40.397317
7.660000	40.397317
7.670000	40.397317
7.680000	40.397317
7.690000	40.397317
7.700000	40.397317
7.710000	40.397317
7.720000	40.397317
7.730000	40.397317
7.740000	40.397317
7.750000	40.397317
7.760000	40.397317
7.770000	40.397317
7.780000	40.397317
7.790000	40.397317
7.800000	40.397317
7.810000	40.397317
7.820000	40.397317
7.830000	40.397317
7.840000	40.397317
7.850000	40.397317
7.860000	40.397317
7.870000	40.397317
7.880000	40.397317
7.890000	40.397317
7.900000	40.397317
7.910000	40.397317
7.920000	40.397317
7.930000	40.397317
7.940000	40.397317
7.950000	40.397317
7.960000	40.397317
7.970000	40.397317
7.980000	40.397317
7.990000	40.397317
8.000000	40.275133
8.010000	40.275133
8.020000	40.275133
8.030000	40.275133
8.040000	40.275133
8.050000	40.275133
8.060000	40.275133
8.070000	40.275133
8.080000	40.275133
8.090000	40.275133
8.100000	40.275133
8.110000	40.275133
8.120000	40.275133
8.130000	40.275133
8.140000	40.275133
8.150000	40.275133
8.160000	40.275133
8.170000	40.275133
8.180000	40.275133
8.190000	40.275133
8.200000	40.275133
8.210000	40.275133
8.220000	40.275133
8.230000	40.275133
8.240000	40.275133
8.250000	40.275133
8.260000	40.275133
8.270000	40.275133
8.280000	40.275133
8.290000	40.275133
8.300000	40.275133
8.310000	40.275133
8.320000	40.275133
8.330000	40.275133
8.340000	40.275133
8.350000	40.275133
8.360000	40.275133
8.370000	40.275133
8.380000	40.275133
8.390000	40.275133
8.400000	40.275133
8.410000	40.275133
8.420000	40.275133
8.430000	40.275133
8.440000	40.275133
8.450000	40.275133
8.460000	40.275133
8.470000	40.275133
8.480000	40.275133
8.490000	40.275133
8.500000	40.105035
8.510000	40.105035
8.520000	40.105035
8.530000	40.105035
8.540000	40.105035
8.550000	40.105035
8.560000	40.105035
8.570000	40.105035
8.580000	40.105035
8.590000	40.105035
8.600000	40.105035
8.610000	40.105035
8.620000	40.105035
8.630000	40.105035
8.640000	40.105035
8.650000	40.105035
8.660000	40.105035
8.670000	40.105035
8.680000	40.105035
8.690000	40.105035
8.700000	40.105035
8.710000	40.105035
8.720000	40.105035
8.730000	40.105035
8.740000	40.105035
8.750000	40.105035
8.760000	40.105035
8.770000	40.105035
8.780000	40.105035
8.790000	40.105035
8.800000	40.105035
8.810000	40.105035
8.820000	40.105035
8.830000	40.105035
8.840000	40.105035
8.850000	40.105035
8.860000	40.105035
8.870000	40.105035
8.880000	40.105035
8.890000	40.105035
8.900000	40.105035
8.910000	40.105035
8.920000	40.105035
8.930000	40.105035
8.940000	40.105035
8.950000	40.105035
8.960000	40.105035
8.970000	40.105035
8.980000	40.105035
8.990000	40.105035
9.000000	39.901532
9.010000	39.901532
9.020000	39.901532
9.030000	39.901532
9.040000	39.901532
9.050000	39.901532
9.060000	39.901532
9.070000	39.901532
9.080000	39.901532
9.090000	39.901532
9.100000	39.901532
9.110000	39.901532
9.120000	39.901532
9.130000	39.901532
9.140000	39.901532
9.150000	39.901532
9.160000	39.901532
9.170000	39.901532
9.180000	39.901532
9.190000	39.901532
9.200000	39.901532
9.210000	39.901532
9.220000	39.901532
9.230000	39.901532
9.240000	39.901532
9.250000	39.901532
9.260000	39.901532
9.270000	39.901532
9.280000	39.901532
9.290000	39.901532
9.300000	39.901532
9.310000	39.901532
9.320000	39.901532
9.330000	39.901532
9.340000	39.901532
9.350000	39.901532
9.360000	39.901532
9.370000	39.901532
9.380000	39.901532
9.390000	39.901532
9.400000	39.901532
9.410000	39.901532
9.420000	39.901532
9.430000	39.901532
9.440000	39.901532
9.450000	39.901532
9.460000	39.901532
9.470000	39.901532
9.480000	39.901532
9.490000	39.901532
9.500000	39.670350
9.510000	39.670350
9.520000	39.670350
9.530000	39.670350
9.540000	39.670350
9.550000	39.670350
9.560000	39.670350
9.570000	39.670350
9.580000	39.670350
9.590000	39.670350
9.600000	39.670350
9.610000	39.670350
9.620000	39.670350
9.630000	39.670350
9.640000	39.670350
9.650000	39.670350
9.660000	39.670350
9.670000	39.670350
9.680000	39.670350
9.690000	39.670350
9.700000	39.670350
9.710000	39.670350
9.720000	39.670350
9.730000	39.670350
9.740000	39.670350
9.750000	39.670350
9.760000	39.670350
9.770000	39.670350
9.780000	39.670350
9.790000	39.670350
9.800000	39.670350
9.810000	39.670350
9.820000	39.670350
9.830000	39.670350
9.840000	39.670350
9.850000	39.670350
9.860000	39.670350
9.870000	39.670350
9.880000	39.670350
9.890000	39.670350
9.900000	39.670350
9.910000	39.670350
9.920000	39.670350
9.930000	39.670350
9.940000	39.670350
9.950000	39.670350
9.960000	39.670350
9.970000	39.670350
9.980000	39.670350
9.990000	39.670350
10.000000	39.422728
10.010000	39.422728
10.020000	39.422728
10.030000	39.422728
10.040000	39.422728
10.050000	39.422728
10.060000	39.422728
10.070000	39.422728
10.080000	39.422728
10.090000	39.422728
10.100000	39.422728
10.110000	39.422728
10.120000	39.422728
10.130000	39.422728
10.140000	39.422728
10.150000	39.422728
10.160000	39.422728
10.170000	39.422728
10.180000	39.422728
10.190000	39.422728
10.200000	39.422728
10.210000	39.422728
10.220000	39.422728
10.230000	39.422728
10.240000	39.422728
10.250000	39.422728
10.260000	39.422728
10.270000	39.422728
10.280000	39.422728
10.290000	39.422728
10.300000	39.422728
10.310000	39.422728
10.320000	39.422728
10.330000	39.422728
10.340000	39.422728
10.350000	39.422728
10.360000	39.422728
10.370000	39.422728
10.380000	39.422728
10.390000	39.422728
10.400000	39.422728
10.410000	39.422728
10.420000	39.422728
10.430000	39.422728
10.440000	39.422728
10.450000	39.422728
10.460000	39.422728
10.470000	39.422728
10.480000	39.422728
10.490000	39.422728
10.500000	39.164439
10.510000	39.164439
10.520000	39.164439
10.530000	39.164439
10.540000	39.164439
10.550000	39.164439
10.560000	39.164439
10.570000	39.164439
10.580000	39.164439
10.590000	39.164439
10.600000	39.164439
10.610000	39.164439
10.620000	39.164439
10.630000	39.164439
10.640000	39.164439
10.650000	39.164439
10.660000	39.164439
10.670000	39.164439
10.680000	39.164439
10.690000	39.164439
10.700000	39.164439
10.710000	39.164439
10.720000	39.164439
10.730000	39.164439
10.740000	39.164439
10.750000	39.164439
10.760000	39.164439
10.770000	39.164439
10.780000	39.164439
10.790000	39.164439
10.800000	39.164439
10.810000	39.164439
10.820000	39.164439
10.830000	39.164439
10.840000	39.164439
10.850000	39.164439
10.860000	39.164439
10.870000	39.164439
10.880000	39.164439
10.890000	39.164439
10.900000	39.164439
10.910000	39.164439
10.920000	39.164439
10.930000	39.164439
10.940000	39.164439
10.950000	39.164439
10.960000	39.164439
10.970000	39.164439
10.980000	39.164439
10.990000	39.164439
11.000000	38.898996
11.010000	38.898996
11.020000	38.898996
11.030000	38.898996
11.040000	38.898996
11.050000	38.898996
11.060000	38.898996
11.070000	38.898996
11.080000	38.898996
11.090000	38.898996
11.100000	38.898996
11.110000	38.898996
11.120000	38.898996
11.130000	38.898996
11.140000	38.898996
11.150000	38.898996
11.160000	38.898996
11.170000	38.898996
11.180000	38.898996
11.190000	38.898996
11.200000	38.898996
11.210000	38.898996
11.220000	38.898996
11.230000	38.898996
11.240000	38.898996
11.250000	38.898996
11.260000	38.898996
11.270000	38.898996
11.280000	38.898996
11.290000	38.898996
11.300000	38.898996
11.310000	38.898996
11.320000	38.898996
11.330000	38.898996
11.340000	38.898996
11.350000	38.898996
11.360000	38.898996
11.370000	38.898996
11.380000	38.898996
11.390000	38.898996
11.400000	38.898996
11.410000	38.898996
11.420000	38.898996
11.430000	38.898996
11.440000	38.898996
11.450000	38.898996
11.460000	38.898996
11.470000	38.898996
11.480000	38.898996
11.490000	38.898996
11.500000	38.630191
11.510000	38.630191
11.520000	38.630191
11.530000	38.630191
11.540000	38.630191
11.550000	38.630191
11.560000	38.630191
11.570000	38.630191
11.580000	38.630191
11.590000	38.630191
11.600000	38.630191
11.610000	38.630191
11.620000	38.630191
11.630000	38.630191
11.640000	38.630191
11.650000	38.630191
11.660000	38.630191
11.670000	38.630191
11.680000	38.630191
11.690000	38.630191
11.700000	38.630191
11.710000	38.630191
11.720000	38.630191
11.730000	38.630191
11.740000	38.630191
11.750000	38.630191
11.760000	38.630191
11.770000	38.630191
11.780000	38.630191
11.790000	38.630191
11.800000	38.630191
11.810000	38.630191
11.820000	38.630191
11.830000	38.630191
11.840000	38.630191
11.850000	38.630191
11.860000	38.630191
11.870000	38.630191
11.880000	38.630191
11.890000	38.630191
11.900000	38.630191
11.910000	38.630191
11.920000	38.630191
11.930000	38.630191
11.940000	38.630191
11.950000	38.630191
11.960000	38.630191
11.970000	38.630191
11.980000	38.630191
11.990000	38.630191
12.000000	38.355734
12.010000	38.355734
12.020000	38.355734
12.030000	38.355734
12.040000	38.355734
12.050000	38.355734
12.060000	38.355734
12.070000	38.355734
12.080000	38.355734
12.090000	38.355734
12.100000	38.355734
12.110000	38.355734
12.120000	38.355734
12.130000	38.355734
12.140000	38.355734
12.150000	38.355734
12.160000	38.355734
12.170000	38.355734
12.180000	38.355734
12.190000	38.355734
12.200000	38.355734
12.210000	38.355734
12.220000	38.355734
12.230000	38.355734
12.240000	38.355734
12.250000	38.355734
12.260000	38.355734
12.270000	38.355734
12.280000	38.355734
12.290000	38.355734
12.300000	38.355734
12.310000	38.355734
12.320000	38.355734
12.330000	38.355734
12.340000	38.355734
12.350000	38.355734
12.360000	38.355734
12.370000	38.355734
12.380000	38.355734
12.390000	38.355734
12.400000	38.355734
12.410000	38.355734
12.420000	38.355734
12.430000	38.355734
12.440000	38.355734
12.450000	38.355734
12.460000	38.355734
12.470000	38.355734
12.480000	38.355734
12.490000	38.355734
12.500000	38.079278
12.510000	38.079278
12.520000	38.079278
12.530000	38.079278
12.540000	38.079278
12.550000	38.079278
12.560000	38.079278
12.570000	38.079278
12.580000	38.079278
12.590000	38.079278
12.600000	38.079278
12.610000	38.079278
12.620000	38.079278
12.630000	38.079278
12.640000	38.079278
12.650000	38.079278
12.660000	38.079278
12.670000	38.079278
12.680000	38.079278
12.690000	38.079278
12.700000	38.079278
12.710000	38.079278
12.720000	38.079278
12.730000	38.079278
12.740000	38.079278
12.750000	38.079278
12.760000	38.079278
12.770000	38.079278
12.780000	38.079278
12.790000	38.079278
12.800000	38.079278
12.810000	38.079278
12.820000	38.079278
12.830000	38.079278
12.840000	38.079278
12.850000	38.079278
12.860000	38.079278
12.870000	38.079278
12.880000	38.079278
12.890000	38.079278
12.900000	38.079278
12.910000	38.079278
12.920000	38.079278
12.930000	38.079278
12.940000	38.079278
12.950000	38.079278
12.960000	38.079278
12.970000	38.079278
12.980000	38.079278
12.990000	38.079278
13.000000	37.806613
13.010000	37.806613
13.020000	37.806613
13.030000	37.806613
13.040000	37.806613
13.050000	37.806613
13.060000	37.806613
13.070000	37.806613
13.080000	37.806613
13.090000	37.806613
13.100000	37.806613
13.110000	37.806613
13.120000	37.806613
13.130000	37.806613
13.140000	37.806613
13.150000	37.806613
13.160000	37.806613
13.170000	37.806613
13.180000	37.806613
13.190000	37.806613
13.200000	37.806613
13.210000	37.806613
13.220000	37.806613
13.230000	37.806613
13.240000	37.806613
13.250000	37.806613
13.260000	37.806613
13.270000	37.806613
13.280000	37.806613
13.290000	37.806613
13.300000	37.806613
13.310000	37.806613
13.320000	37.806613
13.330000	37.806613
13.340000	37.806613
13.350000	37.806613
13.360000	37.806613
13.370000	37.806613
13.380000	37.806613
13.390000	37.806613
13.400000	37.806613
13.410000	37.806613
13.420000	37.806613
13.430000	37.806613
13.440000	37.806613
13.450000	37.806613
13.460000	37.806613
13.470000	37.806613
13.480000	37.806613
13.490000	37.806613
13.500000	37.541339
13.510000	37.541339
13.520000	37.541339
13.530000	37.541339
13.540000	37.541339
13.550000	37.541339
13.560000	37.541339
13.570000	37.541339
13.580000	37.541339
13.590000	37.541339
13.600000	37.541339
13.610000	37.541339
13.620000	37.541339
13.630000	37.541339
13.640000	37.541339
13.650000	37.541339
13.660000	37.541339
13.670000	37.541339
13.680000	37.541339
13.690000	37.541339
13.700000	37.541339
13.710000	37.541339
13.720000	37.541339
13.730000	37.541339
13.740000	37.541339
13.750000	37.541339
13.760000	37.541339
13.770000	37.541339
13.780000	37.541339
13.790000	37.541339
13.800000	37.541339
13.810000	37.541339
13.820000	37.541339
13.830000	37.541339
13.840000	37.541339
13.850000	37.541339
13.860000	37.541339
13.870000	37.541339
13.880000	37.541339
13.890000	37.541339
13.900000	37.541339
13.910000	37.541339
13.920000	37.541339
13.930000	37.541339
13.940000	37.541339
13.950000	37.541339
13.960000	37.541339
13.970000	37.541339
13.980000	37.541339
13.990000	37.541339
14.000000	37.282291
14.010000	37.282291
14.020000	37.282291
14.030000	37.282291
14.040000	37.282291
14.050000	37.282291
14.060000	37.282291
14.070000	37.282291
14.080000	37.282291
14.090000	37.282291
14.100000	37.282291
14.110000	37.282291
14.120000	37.282291
14.130000	37.282291
14.140000	37.282291
14.150000	37.282291
14.160000	37.282291
14.170000	37.282291
14.180000	37.282291
14.190000	37.282291
14.200000	37.282291
14.210000	37.282291
14.220000	37.282291
14.230000	37.282291
14.240000	37.282291
14.250000	37.282291
14.260000	37.282291
14.270000	37.282291
14.280000	37.282291
14.290000	37.282291
14.300000	37.282291
14.310000	37.282291
14.320000	37.282291
14.330000	37.282291
14.340000	37.282291
14.350000	37.282291
14.360000	37.282291
14.370000	37.282291
14.380000	37.282291
14.390000	37.282291
14.400000	37.282291
14.410000	37.282291
14.420000	37.282291
14.430000	37.282291
14.440000	37.282291
14.450000	37.282291
14.460000	37.282291
14.470000	37.282291
14.480000	37.282291
14.490000	37.282291
14.500000	37.024308
14.510000	37.024308
14.520000	37.024308
14.530000	37.024308
14.540000	37.024308
14.550000	37.024308
14.560000	37.024308
14.570000	37.024308
14.580000	37.024308
14.590000	37.024308
14.600000	37.024308
14.610000	37.024308
14.620000	37.024308
14.630000	37.024308
14.640000	37.024308
14.650000	37.024308
14.660000	37.024308
14.670000	37.024308
14.680000	37.024308
14.690000	37.024308
14.700000	37.024308
14.710000	37.024308
14.720000	37.024308
14.730000	37.024308
14.740000	37.024308
14.750000	37.024308
14.760000	37.024308
14.770000	37.024308
14.780000	37.024308
14.790000	37.024308
14.800000	37.024308
14.810000	37.024308
14.820000	37.024308
14.830000	37.024308
14.840000	37.024308
14.850000	37.024308
14.860000	37.024308
14.870000	37.024308
14.880000	37.024308
14.890000	37.024308
14.900000	37.024308
14.910000	37.024308
14.920000	37.024308
14.930000	37.024308
14.940000	37.024308
14.950000	37.024308
14.960000	37.024308
14.970000	37.024308
14.980000	37.024308
14.990000	37.024308
15.000000	36.770252
15.010000	36.770252
15.020000	36.770252
15.030000	36.770252
15.040000	36.770252
15.050000	36.770252
15.060000	36.770252
15.070000	36.770252
15.080000	36.770252
15.090000	36.770252
15.100000	36.770252
15.110000	36.770252
15.120000	36.770252
15.130000	36.770252
15.140000	36.770252
15.150000	36.770252
15.160000	36.770252
15.170000	36.770252
15.180000	36.770252
15.190000	36.770252
15.200000	36.770252
15.210000	36.770252
15.220000	36.770252
15.230000	36.770252
15.240000	36.770252
15.250000	36.770252
15.260000	36.770252
15.270000	36.770252
15.280000	36.770252
15.290000	36.770252
15.300000	36.770252
15.310000	36.770252
15.320000	36.770252
15.330000	36.770252
15.340000	36.770252
15.350000	36.770252
15.360000	36.770252
15.370000	36.770252
15.380000	36.770252
15.390000	36.770252
15.400000	36.770252
15.410000	36.770252
15.420000	36.770252
15.430000	36.770252
15.440000	36.770252
15.450000	36.770252
15.460000	36.770252
15.470000	36.770252
15.480000	36.770252
15.490000	36.770252
15.500000	36.521190
15.510000	36.521190
15.520000	36.521190
15.530000	36.521190
15.540000	36.521190
15.550000	36.521190
15.560000	36.521190
15.570000	36.521190
15.580000	36.521190
15.590000	36.521190
15.600000	36.521190
15.610000	36.521190
15.620000	36.521190
15.630000	36.521190
15.640000	36.521190
15.650000	36.521190
15.660000	36.521190
15.670000	36.521190
15.680000	36.521190
15.690000	36.521190
15.700000	36.521190
15.710000	36.521190
15.720000	36.521190
15.730000	36.521190
15.740000	36.521190
15.750000	36.521190
15.760000	36.521190
15.770000	36.521190
15.780000	36.521190
15.790000	36.521190
15.800000	36.521190
15.810000	36.521190
15.820000	36.521190
15.830000	36.521190
15.840000	36.521190
15.850000	36.521190
15.860000	36.521190
15.870000	36.521190
15.880000	36.521190
15.890000	36.521190
15.900000	36.521190
15.910000	36.521190
15.920000	36.521190
15.930000	36.521190
15.940000	36.521190
15.950000	36.521190
15.960000	36.521190
15.970000	36.521190
15.980000	36.521190
15.990000	36.521190
16.000000	36.273331
16.010000	36.273331
16.020000	36.273331
16.030000	36.273331
16.040000	36.273331
16.050000	36.273331
16.060000	36.273331
16.070000	36.273331
16.080000	36.273331
16.090000	36.273331
16.100000	36.273331
16.110000	36.273331
16.120000	36.273331
16.130000	36.273331
16.140000	36.273331
16.150000	36.273331
16.160000	36.273331
16.170000	36.273331
16.180000	36.273331
16.190000	36.273331
16.200000	36.273331
16.210000	36.273331
16.220000	36.273331
16.230000	36.273331
16.240000	36.273331
16.250000	36.273331
16.260000	36.273331
16.270000	36.273331
16.280000	36.273331
16.290000	36.273331
16.300000	36.273331
16.310000	36.273331
16.320000	36.273331
16.330000	36.273331
16.340000	36.273331
16.350000	36.273331
16.360000	36.273331
16.370000	36.273331
16.380000	36.273331
16.390000	36.273331
16.400000	36.273331
16.410000	36.273331
16.420000	36.273331
16.430000	36.273331
16.440000	36.273331
16.450000	36.273331
16.460000	36.273331
16.470000	36.273331
16.480000	36.273331
16.490000	36.273331
16.500000	36.028769
16.510000	36.028769
16.520000	36.028769
16.530000	36.028769
16.540000	36.028769
16.550000	36.028769
16.560000	36.028769
16.570000	36.028769
16.580000	36.028769
16.590000	36.028769
16.600000	36.028769
16.610000	36.028769
16.620000	36.028769
16.630000	36.028769
16.640000	36.028769
16.650000	36.028769
16.660000	36.028769
16.670000	36.028769
16.680000	36.028769
16.690000	36.028769
16.700000	36.028769
16.710000	36.028769
16.720000	36.028769
16.730000	36.028769
16.740000	36.028769
16.750000	36.028769
16.760000	36.028769
16.770000	36.028769
16.780000	36.028769
16.790000	36.028769
16.800000	36.028769
16.810000	36.028769
16.820000	36.028769
16.830000	36.028769
16.840000	36.028769
16.850000	36.028769
16.860000	36.028769
16.870000	36.028769
16.880000	36.028769
16.890000	36.028769
16.900000	36.028769
16.910000	36.028769
16.920000	36.028769
16.930000	36.028769
16.940000	36.028769
16.950000	36.028769
16.960000	36.028769
16.970000	36.028769
16.980000	36.028769
16.990000	36.028769
17.000000	35.794628
17.010000	35.794628
17.020000	35.794628
17.030000	35.794628
17.040000	35.794628
17.050000	35.794628
17.060000	35.794628
17.070000	35.794628
17.080000	35.794628
17.090000	35.794628
17.100000	35.794628
17.110000	35.794628
17.120000	35.794628
17.130000	35.794628
17.140000	35.794628
17.150000	35.794628
17.160000	35.794628
17.170000	35.794628
17.180000	35.794628
17.190000	35.794628
17.200000	35.794628
17.210000	35.794628
17.220000	35.794628
17.230000	35.794628
17.240000	35.794628
17.250000	35.794628
17.260000	35.794628
17.270000	35.794628
17.280000	35.794628
17.290000	35.794628
17.300000	35.794628
17.310000	35.794628
17.320000	35.794628
17.330000	35.794628
17.340000	35.794628
17.350000	35.794628
17.360000	35.794628
17.370000	35.794628
17.380000	35.794628
17.390000	35.794628
17.400000	35.794628
17.410000	35.794628
17.420000	35.794628
17.430000	35.794628
17.440000	35.794628
17.450000	35.794628
17.460000	35.794628
17.470000	35.794628
17.480000	35.794628
17.490000	35.794628
