LabVIEW Measurement	
Writer_Version	2
Reader_Version	2
Separator	Tab
Decimal_Separator	.
Multi_Headings	No
X_Columns	One
Time_Pref	Absolute
Operator	biomech-dyno
Date	2023/04/27
Time	17:41:55.9338632999999876419
***End_of_Header***	
	
Channels	1	
Samples	10	
Date	2023/04/27	
Time	18:25:12.0584635999999231245	
X_Dimension	Time	
X0	0.0000000000000000E+0	
Delta_X	0.010000	
***End_of_Header***		
X_Value	Untitled	Comment
0.000000	25.030932
0.010000	25.030932
0.020000	25.030932
0.030000	25.030932
0.040000	25.030932
0.050000	25.030932
0.060000	25.030932
0.070000	25.030932
0.080000	25.030932
0.090000	25.030932
0.100000	25.030932
0.110000	25.030932
0.120000	25.030932
0.130000	25.030932
0.140000	25.030932
0.150000	25.030932
0.160000	25.030932
0.170000	25.030932
0.180000	25.030932
0.190000	25.030932
0.200000	25.030932
0.210000	25.030932
0.220000	25.030932
0.230000	25.030932
0.240000	25.030932
0.250000	25.030932
0.260000	25.030932
0.270000	25.030932
0.280000	25.030932
0.290000	25.030932
0.300000	25.030932
0.310000	25.030932
0.320000	25.030932
0.330000	25.030932
0.340000	25.030932
0.350000	25.030932
0.360000	25.030932
0.370000	25.030932
0.380000	25.030932
0.390000	25.030932
0.400000	25.030932
0.410000	25.030932
0.420000	25.030932
0.430000	25.030932
0.440000	25.030932
0.450000	25.030932
0.460000	25.030932
0.470000	25.030932
0.480000	25.030932
0.490000	25.030932
0.500000	25.049515
0.510000	25.049515
0.520000	25.049515
0.530000	25.049515
0.540000	25.049515
0.550000	25.049515
0.560000	25.049515
0.570000	25.049515
0.580000	25.049515
0.590000	25.049515
0.600000	25.049515
0.610000	25.049515
0.620000	25.049515
0.630000	25.049515
0.640000	25.049515
0.650000	25.049515
0.660000	25.049515
0.670000	25.049515
0.680000	25.049515
0.690000	25.049515
0.700000	25.049515
0.710000	25.049515
0.720000	25.049515
0.730000	25.049515
0.740000	25.049515
0.750000	25.049515
0.760000	25.049515
0.770000	25.049515
0.780000	25.049515
0.790000	25.049515
0.800000	25.049515
0.810000	25.049515
0.820000	25.049515
0.830000	25.049515
0.840000	25.049515
0.850000	25.049515
0.860000	25.049515
0.870000	25.049515
0.880000	25.049515
0.890000	25.049515
0.900000	25.049515
0.910000	25.049515
0.920000	25.049515
0.930000	25.049515
0.940000	25.049515
0.950000	25.049515
0.960000	25.049515
0.970000	25.049515
0.980000	25.049515
0.990000	25.049515
1.000000	25.292497
1.010000	25.292497
1.020000	25.292497
1.030000	25.292497
1.040000	25.292497
1.050000	25.292497
1.060000	25.292497
1.070000	25.292497
1.080000	25.292497
1.090000	25.292497
1.100000	25.292497
1.110000	25.292497
1.120000	25.292497
1.130000	25.292497
1.140000	25.292497
1.150000	25.292497
1.160000	25.292497
1.170000	25.292497
1.180000	25.292497
1.190000	25.292497
1.200000	25.292497
1.210000	25.292497
1.220000	25.292497
1.230000	25.292497
1.240000	25.292497
1.250000	25.292497
1.260000	25.292497
1.270000	25.292497
1.280000	25.292497
1.290000	25.292497
1.300000	25.292497
1.310000	25.292497
1.320000	25.292497
1.330000	25.292497
1.340000	25.292497
1.350000	25.292497
1.360000	25.292497
1.370000	25.292497
1.380000	25.292497
1.390000	25.292497
1.400000	25.292497
1.410000	25.292497
1.420000	25.292497
1.430000	25.292497
1.440000	25.292497
1.450000	25.292497
1.460000	25.292497
1.470000	25.292497
1.480000	25.292497
1.490000	25.292497
1.500000	25.866857
1.510000	25.866857
1.520000	25.866857
1.530000	25.866857
1.540000	25.866857
1.550000	25.866857
1.560000	25.866857
1.570000	25.866857
1.580000	25.866857
1.590000	25.866857
1.600000	25.866857
1.610000	25.866857
1.620000	25.866857
1.630000	25.866857
1.640000	25.866857
1.650000	25.866857
1.660000	25.866857
1.670000	25.866857
1.680000	25.866857
1.690000	25.866857
1.700000	25.866857
1.710000	25.866857
1.720000	25.866857
1.730000	25.866857
1.740000	25.866857
1.750000	25.866857
1.760000	25.866857
1.770000	25.866857
1.780000	25.866857
1.790000	25.866857
1.800000	25.866857
1.810000	25.866857
1.820000	25.866857
1.830000	25.866857
1.840000	25.866857
1.850000	25.866857
1.860000	25.866857
1.870000	25.866857
1.880000	25.866857
1.890000	25.866857
1.900000	25.866857
1.910000	25.866857
1.920000	25.866857
1.930000	25.866857
1.940000	25.866857
1.950000	25.866857
1.960000	25.866857
1.970000	25.866857
1.980000	25.866857
1.990000	25.866857
2.000000	26.710618
2.010000	26.710618
2.020000	26.710618
2.030000	26.710618
2.040000	26.710618
2.050000	26.710618
2.060000	26.710618
2.070000	26.710618
2.080000	26.710618
2.090000	26.710618
2.100000	26.710618
2.110000	26.710618
2.120000	26.710618
2.130000	26.710618
2.140000	26.710618
2.150000	26.710618
2.160000	26.710618
2.170000	26.710618
2.180000	26.710618
2.190000	26.710618
2.200000	26.710618
2.210000	26.710618
2.220000	26.710618
2.230000	26.710618
2.240000	26.710618
2.250000	26.710618
2.260000	26.710618
2.270000	26.710618
2.280000	26.710618
2.290000	26.710618
2.300000	26.710618
2.310000	26.710618
2.320000	26.710618
2.330000	26.710618
2.340000	26.710618
2.350000	26.710618
2.360000	26.710618
2.370000	26.710618
2.380000	26.710618
2.390000	26.710618
2.400000	26.710618
2.410000	26.710618
2.420000	26.710618
2.430000	26.710618
2.440000	26.710618
2.450000	26.710618
2.460000	26.710618
2.470000	26.710618
2.480000	26.710618
2.490000	26.710618
2.500000	27.766021
2.510000	27.766021
2.520000	27.766021
2.530000	27.766021
2.540000	27.766021
2.550000	27.766021
2.560000	27.766021
2.570000	27.766021
2.580000	27.766021
2.590000	27.766021
2.600000	27.766021
2.610000	27.766021
2.620000	27.766021
2.630000	27.766021
2.640000	27.766021
2.650000	27.766021
2.660000	27.766021
2.670000	27.766021
2.680000	27.766021
2.690000	27.766021
2.700000	27.766021
2.710000	27.766021
2.720000	27.766021
2.730000	27.766021
2.740000	27.766021
2.750000	27.766021
2.760000	27.766021
2.770000	27.766021
2.780000	27.766021
2.790000	27.766021
2.800000	27.766021
2.810000	27.766021
2.820000	27.766021
2.830000	27.766021
2.840000	27.766021
2.850000	27.766021
2.860000	27.766021
2.870000	27.766021
2.880000	27.766021
2.890000	27.766021
2.900000	27.766021
2.910000	27.766021
2.920000	27.766021
2.930000	27.766021
2.940000	27.766021
2.950000	27.766021
2.960000	27.766021
2.970000	27.766021
2.980000	27.766021
2.990000	27.766021
3.000000	28.920292
3.010000	28.920292
3.020000	28.920292
3.030000	28.920292
3.040000	28.920292
3.050000	28.920292
3.060000	28.920292
3.070000	28.920292
3.080000	28.920292
3.090000	28.920292
3.100000	28.920292
3.110000	28.920292
3.120000	28.920292
3.130000	28.920292
3.140000	28.920292
3.150000	28.920292
3.160000	28.920292
3.170000	28.920292
3.180000	28.920292
3.190000	28.920292
3.200000	28.920292
3.210000	28.920292
3.220000	28.920292
3.230000	28.920292
3.240000	28.920292
3.250000	28.920292
3.260000	28.920292
3.270000	28.920292
3.280000	28.920292
3.290000	28.920292
3.300000	28.920292
3.310000	28.920292
3.320000	28.920292
3.330000	28.920292
3.340000	28.920292
3.350000	28.920292
3.360000	28.920292
3.370000	28.920292
3.380000	28.920292
3.390000	28.920292
3.400000	28.920292
3.410000	28.920292
3.420000	28.920292
3.430000	28.920292
3.440000	28.920292
3.450000	28.920292
3.460000	28.920292
3.470000	28.920292
3.480000	28.920292
3.490000	28.920292
3.500000	29.896925
3.510000	29.896925
3.520000	29.896925
3.530000	29.896925
3.540000	29.896925
3.550000	29.896925
3.560000	29.896925
3.570000	29.896925
3.580000	29.896925
3.590000	29.896925
3.600000	29.896925
3.610000	29.896925
3.620000	29.896925
3.630000	29.896925
3.640000	29.896925
3.650000	29.896925
3.660000	29.896925
3.670000	29.896925
3.680000	29.896925
3.690000	29.896925
3.700000	29.896925
3.710000	29.896925
3.720000	29.896925
3.730000	29.896925
3.740000	29.896925
3.750000	29.896925
3.760000	29.896925
3.770000	29.896925
3.780000	29.896925
3.790000	29.896925
3.800000	29.896925
3.810000	29.896925
3.820000	29.896925
3.830000	29.896925
3.840000	29.896925
3.850000	29.896925
3.860000	29.896925
3.870000	29.896925
3.880000	29.896925
3.890000	29.896925
3.900000	29.896925
3.910000	29.896925
3.920000	29.896925
3.930000	29.896925
3.940000	29.896925
3.950000	29.896925
3.960000	29.896925
3.970000	29.896925
3.980000	29.896925
3.990000	29.896925
4.000000	30.619774
4.010000	30.619774
4.020000	30.619774
4.030000	30.619774
4.040000	30.619774
4.050000	30.619774
4.060000	30.619774
4.070000	30.619774
4.080000	30.619774
4.090000	30.619774
4.100000	30.619774
4.110000	30.619774
4.120000	30.619774
4.130000	30.619774
4.140000	30.619774
4.150000	30.619774
4.160000	30.619774
4.170000	30.619774
4.180000	30.619774
4.190000	30.619774
4.200000	30.619774
4.210000	30.619774
4.220000	30.619774
4.230000	30.619774
4.240000	30.619774
4.250000	30.619774
4.260000	30.619774
4.270000	30.619774
4.280000	30.619774
4.290000	30.619774
4.300000	30.619774
4.310000	30.619774
4.320000	30.619774
4.330000	30.619774
4.340000	30.619774
4.350000	30.619774
4.360000	30.619774
4.370000	30.619774
4.380000	30.619774
4.390000	30.619774
4.400000	30.619774
4.410000	30.619774
4.420000	30.619774
4.430000	30.619774
4.440000	30.619774
4.450000	30.619774
4.460000	30.619774
4.470000	30.619774
4.480000	30.619774
4.490000	30.619774
4.500000	31.130978
4.510000	31.130978
4.520000	31.130978
4.530000	31.130978
4.540000	31.130978
4.550000	31.130978
4.560000	31.130978
4.570000	31.130978
4.580000	31.130978
4.590000	31.130978
4.600000	31.130978
4.610000	31.130978
4.620000	31.130978
4.630000	31.130978
4.640000	31.130978
4.650000	31.130978
4.660000	31.130978
4.670000	31.130978
4.680000	31.130978
4.690000	31.130978
4.700000	31.130978
4.710000	31.130978
4.720000	31.130978
4.730000	31.130978
4.740000	31.130978
4.750000	31.130978
4.760000	31.130978
4.770000	31.130978
4.780000	31.130978
4.790000	31.130978
4.800000	31.130978
4.810000	31.130978
4.820000	31.130978
4.830000	31.130978
4.840000	31.130978
4.850000	31.130978
4.860000	31.130978
4.870000	31.130978
4.880000	31.130978
4.890000	31.130978
4.900000	31.130978
4.910000	31.130978
4.920000	31.130978
4.930000	31.130978
4.940000	31.130978
4.950000	31.130978
4.960000	31.130978
4.970000	31.130978
4.980000	31.130978
4.990000	31.130978
5.000000	31.477421
5.010000	31.477421
5.020000	31.477421
5.030000	31.477421
5.040000	31.477421
5.050000	31.477421
5.060000	31.477421
5.070000	31.477421
5.080000	31.477421
5.090000	31.477421
5.100000	31.477421
5.110000	31.477421
5.120000	31.477421
5.130000	31.477421
5.140000	31.477421
5.150000	31.477421
5.160000	31.477421
5.170000	31.477421
5.180000	31.477421
5.190000	31.477421
5.200000	31.477421
5.210000	31.477421
5.220000	31.477421
5.230000	31.477421
5.240000	31.477421
5.250000	31.477421
5.260000	31.477421
5.270000	31.477421
5.280000	31.477421
5.290000	31.477421
5.300000	31.477421
5.310000	31.477421
5.320000	31.477421
5.330000	31.477421
5.340000	31.477421
5.350000	31.477421
5.360000	31.477421
5.370000	31.477421
5.380000	31.477421
5.390000	31.477421
5.400000	31.477421
5.410000	31.477421
5.420000	31.477421
5.430000	31.477421
5.440000	31.477421
5.450000	31.477421
5.460000	31.477421
5.470000	31.477421
5.480000	31.477421
5.490000	31.477421
5.500000	31.701341
5.510000	31.701341
5.520000	31.701341
5.530000	31.701341
5.540000	31.701341
5.550000	31.701341
5.560000	31.701341
5.570000	31.701341
5.580000	31.701341
5.590000	31.701341
5.600000	31.701341
5.610000	31.701341
5.620000	31.701341
5.630000	31.701341
5.640000	31.701341
5.650000	31.701341
5.660000	31.701341
5.670000	31.701341
5.680000	31.701341
5.690000	31.701341
5.700000	31.701341
5.710000	31.701341
5.720000	31.701341
5.730000	31.701341
5.740000	31.701341
5.750000	31.701341
5.760000	31.701341
5.770000	31.701341
5.780000	31.701341
5.790000	31.701341
5.800000	31.701341
5.810000	31.701341
5.820000	31.701341
5.830000	31.701341
5.840000	31.701341
5.850000	31.701341
5.860000	31.701341
5.870000	31.701341
5.880000	31.701341
5.890000	31.701341
5.900000	31.701341
5.910000	31.701341
5.920000	31.701341
5.930000	31.701341
5.940000	31.701341
5.950000	31.701341
5.960000	31.701341
5.970000	31.701341
5.980000	31.701341
5.990000	31.701341
6.000000	31.834627
6.010000	31.834627
6.020000	31.834627
6.030000	31.834627
6.040000	31.834627
6.050000	31.834627
6.060000	31.834627
6.070000	31.834627
6.080000	31.834627
6.090000	31.834627
6.100000	31.834627
6.110000	31.834627
6.120000	31.834627
6.130000	31.834627
6.140000	31.834627
6.150000	31.834627
6.160000	31.834627
6.170000	31.834627
6.180000	31.834627
6.190000	31.834627
6.200000	31.834627
6.210000	31.834627
6.220000	31.834627
6.230000	31.834627
6.240000	31.834627
6.250000	31.834627
6.260000	31.834627
6.270000	31.834627
6.280000	31.834627
6.290000	31.834627
6.300000	31.834627
6.310000	31.834627
6.320000	31.834627
6.330000	31.834627
6.340000	31.834627
6.350000	31.834627
6.360000	31.834627
6.370000	31.834627
6.380000	31.834627
6.390000	31.834627
6.400000	31.834627
6.410000	31.834627
6.420000	31.834627
6.430000	31.834627
6.440000	31.834627
6.450000	31.834627
6.460000	31.834627
6.470000	31.834627
6.480000	31.834627
6.490000	31.834627
6.500000	31.897593
6.510000	31.897593
6.520000	31.897593
6.530000	31.897593
6.540000	31.897593
6.550000	31.897593
6.560000	31.897593
6.570000	31.897593
6.580000	31.897593
6.590000	31.897593
6.600000	31.897593
6.610000	31.897593
6.620000	31.897593
6.630000	31.897593
6.640000	31.897593
6.650000	31.897593
6.660000	31.897593
6.670000	31.897593
6.680000	31.897593
6.690000	31.897593
6.700000	31.897593
6.710000	31.897593
6.720000	31.897593
6.730000	31.897593
6.740000	31.897593
6.750000	31.897593
6.760000	31.897593
6.770000	31.897593
6.780000	31.897593
6.790000	31.897593
6.800000	31.897593
6.810000	31.897593
6.820000	31.897593
6.830000	31.897593
6.840000	31.897593
6.850000	31.897593
6.860000	31.897593
6.870000	31.897593
6.880000	31.897593
6.890000	31.897593
6.900000	31.897593
6.910000	31.897593
6.920000	31.897593
6.930000	31.897593
6.940000	31.897593
6.950000	31.897593
6.960000	31.897593
6.970000	31.897593
6.980000	31.897593
6.990000	31.897593
7.000000	31.905789
7.010000	31.905789
7.020000	31.905789
7.030000	31.905789
7.040000	31.905789
7.050000	31.905789
7.060000	31.905789
7.070000	31.905789
7.080000	31.905789
7.090000	31.905789
7.100000	31.905789
7.110000	31.905789
7.120000	31.905789
7.130000	31.905789
7.140000	31.905789
7.150000	31.905789
7.160000	31.905789
7.170000	31.905789
7.180000	31.905789
7.190000	31.905789
7.200000	31.905789
7.210000	31.905789
7.220000	31.905789
7.230000	31.905789
7.240000	31.905789
7.250000	31.905789
7.260000	31.905789
7.270000	31.905789
7.280000	31.905789
7.290000	31.905789
7.300000	31.905789
7.310000	31.905789
7.320000	31.905789
7.330000	31.905789
7.340000	31.905789
7.350000	31.905789
7.360000	31.905789
7.370000	31.905789
7.380000	31.905789
7.390000	31.905789
7.400000	31.905789
7.410000	31.905789
7.420000	31.905789
7.430000	31.905789
7.440000	31.905789
7.450000	31.905789
7.460000	31.905789
7.470000	31.905789
7.480000	31.905789
7.490000	31.905789
7.500000	31.879568
7.510000	31.879568
7.520000	31.879568
7.530000	31.879568
7.540000	31.879568
7.550000	31.879568
7.560000	31.879568
7.570000	31.879568
7.580000	31.879568
7.590000	31.879568
7.600000	31.879568
7.610000	31.879568
7.620000	31.879568
7.630000	31.879568
7.640000	31.879568
7.650000	31.879568
7.660000	31.879568
7.670000	31.879568
7.680000	31.879568
7.690000	31.879568
7.700000	31.879568
7.710000	31.879568
7.720000	31.879568
7.730000	31.879568
7.740000	31.879568
7.750000	31.879568
7.760000	31.879568
7.770000	31.879568
7.780000	31.879568
7.790000	31.879568
7.800000	31.879568
7.810000	31.879568
7.820000	31.879568
7.830000	31.879568
7.840000	31.879568
7.850000	31.879568
7.860000	31.879568
7.870000	31.879568
7.880000	31.879568
7.890000	31.879568
7.900000	31.879568
7.910000	31.879568
7.920000	31.879568
7.930000	31.879568
7.940000	31.879568
7.950000	31.879568
7.960000	31.879568
7.970000	31.879568
7.980000	31.879568
7.990000	31.879568
8.000000	31.822116
8.010000	31.822116
8.020000	31.822116
8.030000	31.822116
8.040000	31.822116
8.050000	31.822116
8.060000	31.822116
8.070000	31.822116
8.080000	31.822116
8.090000	31.822116
8.100000	31.822116
8.110000	31.822116
8.120000	31.822116
8.130000	31.822116
8.140000	31.822116
8.150000	31.822116
8.160000	31.822116
8.170000	31.822116
8.180000	31.822116
8.190000	31.822116
8.200000	31.822116
8.210000	31.822116
8.220000	31.822116
8.230000	31.822116
8.240000	31.822116
8.250000	31.822116
8.260000	31.822116
8.270000	31.822116
8.280000	31.822116
8.290000	31.822116
8.300000	31.822116
8.310000	31.822116
8.320000	31.822116
8.330000	31.822116
8.340000	31.822116
8.350000	31.822116
8.360000	31.822116
8.370000	31.822116
8.380000	31.822116
8.390000	31.822116
8.400000	31.822116
8.410000	31.822116
8.420000	31.822116
8.430000	31.822116
8.440000	31.822116
8.450000	31.822116
8.460000	31.822116
8.470000	31.822116
8.480000	31.822116
8.490000	31.822116
8.500000	31.741309
8.510000	31.741309
8.520000	31.741309
8.530000	31.741309
8.540000	31.741309
8.550000	31.741309
8.560000	31.741309
8.570000	31.741309
8.580000	31.741309
8.590000	31.741309
8.600000	31.741309
8.610000	31.741309
8.620000	31.741309
8.630000	31.741309
8.640000	31.741309
8.650000	31.741309
8.660000	31.741309
8.670000	31.741309
8.680000	31.741309
8.690000	31.741309
8.700000	31.741309
8.710000	31.741309
8.720000	31.741309
8.730000	31.741309
8.740000	31.741309
8.750000	31.741309
8.760000	31.741309
8.770000	31.741309
8.780000	31.741309
8.790000	31.741309
8.800000	31.741309
8.810000	31.741309
8.820000	31.741309
8.830000	31.741309
8.840000	31.741309
8.850000	31.741309
8.860000	31.741309
8.870000	31.741309
8.880000	31.741309
8.890000	31.741309
8.900000	31.741309
8.910000	31.741309
8.920000	31.741309
8.930000	31.741309
8.940000	31.741309
8.950000	31.741309
8.960000	31.741309
8.970000	31.741309
8.980000	31.741309
8.990000	31.741309
9.000000	31.646587
9.010000	31.646587
9.020000	31.646587
9.030000	31.646587
9.040000	31.646587
9.050000	31.646587
9.060000	31.646587
9.070000	31.646587
9.080000	31.646587
9.090000	31.646587
9.100000	31.646587
9.110000	31.646587
9.120000	31.646587
9.130000	31.646587
9.140000	31.646587
9.150000	31.646587
9.160000	31.646587
9.170000	31.646587
9.180000	31.646587
9.190000	31.646587
9.200000	31.646587
9.210000	31.646587
9.220000	31.646587
9.230000	31.646587
9.240000	31.646587
9.250000	31.646587
9.260000	31.646587
9.270000	31.646587
9.280000	31.646587
9.290000	31.646587
9.300000	31.646587
9.310000	31.646587
9.320000	31.646587
9.330000	31.646587
9.340000	31.646587
9.350000	31.646587
9.360000	31.646587
9.370000	31.646587
9.380000	31.646587
9.390000	31.646587
9.400000	31.646587
9.410000	31.646587
9.420000	31.646587
9.430000	31.646587
9.440000	31.646587
9.450000	31.646587
9.460000	31.646587
9.470000	31.646587
9.480000	31.646587
9.490000	31.646587
9.500000	31.539677
9.510000	31.539677
9.520000	31.539677
9.530000	31.539677
9.540000	31.539677
9.550000	31.539677
9.560000	31.539677
9.570000	31.539677
9.580000	31.539677
9.590000	31.539677
9.600000	31.539677
9.610000	31.539677
9.620000	31.539677
9.630000	31.539677
9.640000	31.539677
9.650000	31.539677
9.660000	31.539677
9.670000	31.539677
9.680000	31.539677
9.690000	31.539677
9.700000	31.539677
9.710000	31.539677
9.720000	31.539677
9.730000	31.539677
9.740000	31.539677
9.750000	31.539677
9.760000	31.539677
9.770000	31.539677
9.780000	31.539677
9.790000	31.539677
9.800000	31.539677
9.810000	31.539677
9.820000	31.539677
9.830000	31.539677
9.840000	31.539677
9.850000	31.539677
9.860000	31.539677
9.870000	31.539677
9.880000	31.539677
9.890000	31.539677
9.900000	31.539677
9.910000	31.539677
9.920000	31.539677
9.930000	31.539677
9.940000	31.539677
9.950000	31.539677
9.960000	31.539677
9.970000	31.539677
9.980000	31.539677
9.990000	31.539677
10.000000	31.423454
10.010000	31.423454
10.020000	31.423454
10.030000	31.423454
10.040000	31.423454
10.050000	31.423454
10.060000	31.423454
10.070000	31.423454
10.080000	31.423454
10.090000	31.423454
10.100000	31.423454
10.110000	31.423454
10.120000	31.423454
10.130000	31.423454
10.140000	31.423454
10.150000	31.423454
10.160000	31.423454
10.170000	31.423454
10.180000	31.423454
10.190000	31.423454
10.200000	31.423454
10.210000	31.423454
10.220000	31.423454
10.230000	31.423454
10.240000	31.423454
10.250000	31.423454
10.260000	31.423454
10.270000	31.423454
10.280000	31.423454
10.290000	31.423454
10.300000	31.423454
10.310000	31.423454
10.320000	31.423454
10.330000	31.423454
10.340000	31.423454
10.350000	31.423454
10.360000	31.423454
10.370000	31.423454
10.380000	31.423454
10.390000	31.423454
10.400000	31.423454
10.410000	31.423454
10.420000	31.423454
10.430000	31.423454
10.440000	31.423454
10.450000	31.423454
10.460000	31.423454
10.470000	31.423454
10.480000	31.423454
10.490000	31.423454
10.500000	31.302830
10.510000	31.302830
10.520000	31.302830
10.530000	31.302830
10.540000	31.302830
10.550000	31.302830
10.560000	31.302830
10.570000	31.302830
10.580000	31.302830
10.590000	31.302830
10.600000	31.302830
10.610000	31.302830
10.620000	31.302830
10.630000	31.302830
10.640000	31.302830
10.650000	31.302830
10.660000	31.302830
10.670000	31.302830
10.680000	31.302830
10.690000	31.302830
10.700000	31.302830
10.710000	31.302830
10.720000	31.302830
10.730000	31.302830
10.740000	31.302830
10.750000	31.302830
10.760000	31.302830
10.770000	31.302830
10.780000	31.302830
10.790000	31.302830
10.800000	31.302830
10.810000	31.302830
10.820000	31.302830
10.830000	31.302830
10.840000	31.302830
10.850000	31.302830
10.860000	31.302830
10.870000	31.302830
10.880000	31.302830
10.890000	31.302830
10.900000	31.302830
10.910000	31.302830
10.920000	31.302830
10.930000	31.302830
10.940000	31.302830
10.950000	31.302830
10.960000	31.302830
10.970000	31.302830
10.980000	31.302830
10.990000	31.302830
11.000000	31.181965
11.010000	31.181965
11.020000	31.181965
11.030000	31.181965
11.040000	31.181965
11.050000	31.181965
11.060000	31.181965
11.070000	31.181965
11.080000	31.181965
11.090000	31.181965
11.100000	31.181965
11.110000	31.181965
11.120000	31.181965
11.130000	31.181965
11.140000	31.181965
11.150000	31.181965
11.160000	31.181965
11.170000	31.181965
11.180000	31.181965
11.190000	31.181965
11.200000	31.181965
11.210000	31.181965
11.220000	31.181965
11.230000	31.181965
11.240000	31.181965
11.250000	31.181965
11.260000	31.181965
11.270000	31.181965
11.280000	31.181965
11.290000	31.181965
11.300000	31.181965
11.310000	31.181965
11.320000	31.181965
11.330000	31.181965
11.340000	31.181965
11.350000	31.181965
11.360000	31.181965
11.370000	31.181965
11.380000	31.181965
11.390000	31.181965
11.400000	31.181965
11.410000	31.181965
11.420000	31.181965
11.430000	31.181965
11.440000	31.181965
11.450000	31.181965
11.460000	31.181965
11.470000	31.181965
11.480000	31.181965
11.490000	31.181965
11.500000	31.061620
11.510000	31.061620
11.520000	31.061620
11.530000	31.061620
11.540000	31.061620
11.550000	31.061620
11.560000	31.061620
11.570000	31.061620
11.580000	31.061620
11.590000	31.061620
11.600000	31.061620
11.610000	31.061620
11.620000	31.061620
11.630000	31.061620
11.640000	31.061620
11.650000	31.061620
11.660000	31.061620
11.670000	31.061620
11.680000	31.061620
11.690000	31.061620
11.700000	31.061620
11.710000	31.061620
11.720000	31.061620
11.730000	31.061620
11.740000	31.061620
11.750000	31.061620
11.760000	31.061620
11.770000	31.061620
11.780000	31.061620
11.790000	31.061620
11.800000	31.061620
11.810000	31.061620
11.820000	31.061620
11.830000	31.061620
11.840000	31.061620
11.850000	31.061620
11.860000	31.061620
11.870000	31.061620
11.880000	31.061620
11.890000	31.061620
11.900000	31.061620
11.910000	31.061620
11.920000	31.061620
11.930000	31.061620
11.940000	31.061620
11.950000	31.061620
11.960000	31.061620
11.970000	31.061620
11.980000	31.061620
11.990000	31.061620
12.000000	30.939905
12.010000	30.939905
12.020000	30.939905
12.030000	30.939905
12.040000	30.939905
12.050000	30.939905
12.060000	30.939905
12.070000	30.939905
12.080000	30.939905
12.090000	30.939905
12.100000	30.939905
12.110000	30.939905
12.120000	30.939905
12.130000	30.939905
12.140000	30.939905
12.150000	30.939905
12.160000	30.939905
12.170000	30.939905
12.180000	30.939905
12.190000	30.939905
12.200000	30.939905
12.210000	30.939905
12.220000	30.939905
12.230000	30.939905
12.240000	30.939905
12.250000	30.939905
12.260000	30.939905
12.270000	30.939905
12.280000	30.939905
12.290000	30.939905
12.300000	30.939905
12.310000	30.939905
12.320000	30.939905
12.330000	30.939905
12.340000	30.939905
12.350000	30.939905
12.360000	30.939905
12.370000	30.939905
12.380000	30.939905
12.390000	30.939905
12.400000	30.939905
12.410000	30.939905
12.420000	30.939905
12.430000	30.939905
12.440000	30.939905
12.450000	30.939905
12.460000	30.939905
12.470000	30.939905
12.480000	30.939905
12.490000	30.939905
12.500000	30.818444
12.510000	30.818444
12.520000	30.818444
12.530000	30.818444
12.540000	30.818444
12.550000	30.818444
12.560000	30.818444
12.570000	30.818444
12.580000	30.818444
12.590000	30.818444
12.600000	30.818444
12.610000	30.818444
12.620000	30.818444
12.630000	30.818444
12.640000	30.818444
12.650000	30.818444
12.660000	30.818444
12.670000	30.818444
12.680000	30.818444
12.690000	30.818444
12.700000	30.818444
12.710000	30.818444
12.720000	30.818444
12.730000	30.818444
12.740000	30.818444
12.750000	30.818444
12.760000	30.818444
12.770000	30.818444
12.780000	30.818444
12.790000	30.818444
12.800000	30.818444
12.810000	30.818444
12.820000	30.818444
12.830000	30.818444
12.840000	30.818444
12.850000	30.818444
12.860000	30.818444
12.870000	30.818444
12.880000	30.818444
12.890000	30.818444
12.900000	30.818444
12.910000	30.818444
12.920000	30.818444
12.930000	30.818444
12.940000	30.818444
12.950000	30.818444
12.960000	30.818444
12.970000	30.818444
12.980000	30.818444
12.990000	30.818444
13.000000	30.696850
13.010000	30.696850
13.020000	30.696850
13.030000	30.696850
13.040000	30.696850
13.050000	30.696850
13.060000	30.696850
13.070000	30.696850
13.080000	30.696850
13.090000	30.696850
13.100000	30.696850
13.110000	30.696850
13.120000	30.696850
13.130000	30.696850
13.140000	30.696850
13.150000	30.696850
13.160000	30.696850
13.170000	30.696850
13.180000	30.696850
13.190000	30.696850
13.200000	30.696850
13.210000	30.696850
13.220000	30.696850
13.230000	30.696850
13.240000	30.696850
13.250000	30.696850
13.260000	30.696850
13.270000	30.696850
13.280000	30.696850
13.290000	30.696850
13.300000	30.696850
13.310000	30.696850
13.320000	30.696850
13.330000	30.696850
13.340000	30.696850
13.350000	30.696850
13.360000	30.696850
13.370000	30.696850
13.380000	30.696850
13.390000	30.696850
13.400000	30.696850
13.410000	30.696850
13.420000	30.696850
13.430000	30.696850
13.440000	30.696850
13.450000	30.696850
13.460000	30.696850
13.470000	30.696850
13.480000	30.696850
13.490000	30.696850
13.500000	30.575976
13.510000	30.575976
13.520000	30.575976
13.530000	30.575976
13.540000	30.575976
13.550000	30.575976
13.560000	30.575976
13.570000	30.575976
13.580000	30.575976
13.590000	30.575976
13.600000	30.575976
13.610000	30.575976
13.620000	30.575976
13.630000	30.575976
13.640000	30.575976
13.650000	30.575976
13.660000	30.575976
13.670000	30.575976
13.680000	30.575976
13.690000	30.575976
13.700000	30.575976
13.710000	30.575976
13.720000	30.575976
13.730000	30.575976
13.740000	30.575976
13.750000	30.575976
13.760000	30.575976
13.770000	30.575976
13.780000	30.575976
13.790000	30.575976
13.800000	30.575976
13.810000	30.575976
13.820000	30.575976
13.830000	30.575976
13.840000	30.575976
13.850000	30.575976
13.860000	30.575976
13.870000	30.575976
13.880000	30.575976
13.890000	30.575976
13.900000	30.575976
13.910000	30.575976
13.920000	30.575976
13.930000	30.575976
13.940000	30.575976
13.950000	30.575976
13.960000	30.575976
13.970000	30.575976
13.980000	30.575976
13.990000	30.575976
14.000000	30.458139
14.010000	30.458139
14.020000	30.458139
14.030000	30.458139
14.040000	30.458139
14.050000	30.458139
14.060000	30.458139
14.070000	30.458139
14.080000	30.458139
14.090000	30.458139
14.100000	30.458139
14.110000	30.458139
14.120000	30.458139
14.130000	30.458139
14.140000	30.458139
14.150000	30.458139
14.160000	30.458139
14.170000	30.458139
14.180000	30.458139
14.190000	30.458139
14.200000	30.458139
14.210000	30.458139
14.220000	30.458139
14.230000	30.458139
14.240000	30.458139
14.250000	30.458139
14.260000	30.458139
14.270000	30.458139
14.280000	30.458139
14.290000	30.458139
14.300000	30.458139
14.310000	30.458139
14.320000	30.458139
14.330000	30.458139
14.340000	30.458139
14.350000	30.458139
14.360000	30.458139
14.370000	30.458139
14.380000	30.458139
14.390000	30.458139
14.400000	30.458139
14.410000	30.458139
14.420000	30.458139
14.430000	30.458139
14.440000	30.458139
14.450000	30.458139
14.460000	30.458139
14.470000	30.458139
14.480000	30.458139
14.490000	30.458139
14.500000	30.343356
14.510000	30.343356
14.520000	30.343356
14.530000	30.343356
14.540000	30.343356
14.550000	30.343356
14.560000	30.343356
14.570000	30.343356
14.580000	30.343356
14.590000	30.343356
14.600000	30.343356
14.610000	30.343356
14.620000	30.343356
14.630000	30.343356
14.640000	30.343356
14.650000	30.343356
14.660000	30.343356
14.670000	30.343356
14.680000	30.343356
14.690000	30.343356
14.700000	30.343356
14.710000	30.343356
14.720000	30.343356
14.730000	30.343356
14.740000	30.343356
14.750000	30.343356
14.760000	30.343356
14.770000	30.343356
14.780000	30.343356
14.790000	30.343356
14.800000	30.343356
14.810000	30.343356
14.820000	30.343356
14.830000	30.343356
14.840000	30.343356
14.850000	30.343356
14.860000	30.343356
14.870000	30.343356
14.880000	30.343356
14.890000	30.343356
14.900000	30.343356
14.910000	30.343356
14.920000	30.343356
14.930000	30.343356
14.940000	30.343356
14.950000	30.343356
14.960000	30.343356
14.970000	30.343356
14.980000	30.343356
14.990000	30.343356
15.000000	30.230706
15.010000	30.230706
15.020000	30.230706
15.030000	30.230706
15.040000	30.230706
15.050000	30.230706
15.060000	30.230706
15.070000	30.230706
15.080000	30.230706
15.090000	30.230706
15.100000	30.230706
15.110000	30.230706
15.120000	30.230706
15.130000	30.230706
15.140000	30.230706
15.150000	30.230706
15.160000	30.230706
15.170000	30.230706
15.180000	30.230706
15.190000	30.230706
15.200000	30.230706
15.210000	30.230706
15.220000	30.230706
15.230000	30.230706
15.240000	30.230706
15.250000	30.230706
15.260000	30.230706
15.270000	30.230706
15.280000	30.230706
15.290000	30.230706
15.300000	30.230706
15.310000	30.230706
15.320000	30.230706
15.330000	30.230706
15.340000	30.230706
15.350000	30.230706
15.360000	30.230706
15.370000	30.230706
15.380000	30.230706
15.390000	30.230706
15.400000	30.230706
15.410000	30.230706
15.420000	30.230706
15.430000	30.230706
15.440000	30.230706
15.450000	30.230706
15.460000	30.230706
15.470000	30.230706
15.480000	30.230706
15.490000	30.230706
15.500000	30.119104
15.510000	30.119104
15.520000	30.119104
15.530000	30.119104
15.540000	30.119104
15.550000	30.119104
15.560000	30.119104
15.570000	30.119104
15.580000	30.119104
15.590000	30.119104
15.600000	30.119104
15.610000	30.119104
15.620000	30.119104
15.630000	30.119104
15.640000	30.119104
15.650000	30.119104
15.660000	30.119104
15.670000	30.119104
15.680000	30.119104
15.690000	30.119104
15.700000	30.119104
15.710000	30.119104
15.720000	30.119104
15.730000	30.119104
15.740000	30.119104
15.750000	30.119104
15.760000	30.119104
15.770000	30.119104
15.780000	30.119104
15.790000	30.119104
15.800000	30.119104
15.810000	30.119104
15.820000	30.119104
15.830000	30.119104
15.840000	30.119104
15.850000	30.119104
15.860000	30.119104
15.870000	30.119104
15.880000	30.119104
15.890000	30.119104
15.900000	30.119104
15.910000	30.119104
15.920000	30.119104
15.930000	30.119104
15.940000	30.119104
15.950000	30.119104
15.960000	30.119104
15.970000	30.119104
15.980000	30.119104
15.990000	30.119104
16.000000	30.009834
16.010000	30.009834
16.020000	30.009834
16.030000	30.009834
16.040000	30.009834
16.050000	30.009834
16.060000	30.009834
16.070000	30.009834
16.080000	30.009834
16.090000	30.009834
16.100000	30.009834
16.110000	30.009834
16.120000	30.009834
16.130000	30.009834
16.140000	30.009834
16.150000	30.009834
16.160000	30.009834
16.170000	30.009834
16.180000	30.009834
16.190000	30.009834
16.200000	30.009834
16.210000	30.009834
16.220000	30.009834
16.230000	30.009834
16.240000	30.009834
16.250000	30.009834
16.260000	30.009834
16.270000	30.009834
16.280000	30.009834
16.290000	30.009834
16.300000	30.009834
16.310000	30.009834
16.320000	30.009834
16.330000	30.009834
16.340000	30.009834
16.350000	30.009834
16.360000	30.009834
16.370000	30.009834
16.380000	30.009834
16.390000	30.009834
16.400000	30.009834
16.410000	30.009834
16.420000	30.009834
16.430000	30.009834
16.440000	30.009834
16.450000	30.009834
16.460000	30.009834
16.470000	30.009834
16.480000	30.009834
16.490000	30.009834
16.500000	29.902987
16.510000	29.902987
16.520000	29.902987
16.530000	29.902987
16.540000	29.902987
16.550000	29.902987
16.560000	29.902987
16.570000	29.902987
16.580000	29.902987
16.590000	29.902987
16.600000	29.902987
16.610000	29.902987
16.620000	29.902987
16.630000	29.902987
16.640000	29.902987
16.650000	29.902987
16.660000	29.902987
16.670000	29.902987
16.680000	29.902987
16.690000	29.902987
16.700000	29.902987
16.710000	29.902987
16.720000	29.902987
16.730000	29.902987
16.740000	29.902987
16.750000	29.902987
16.760000	29.902987
16.770000	29.902987
16.780000	29.902987
16.790000	29.902987
16.800000	29.902987
16.810000	29.902987
16.820000	29.902987
16.830000	29.902987
16.840000	29.902987
16.850000	29.902987
16.860000	29.902987
16.870000	29.902987
16.880000	29.902987
16.890000	29.902987
16.900000	29.902987
16.910000	29.902987
16.920000	29.902987
16.930000	29.902987
16.940000	29.902987
16.950000	29.902987
16.960000	29.902987
16.970000	29.902987
16.980000	29.902987
16.990000	29.902987
17.000000	29.799860
17.010000	29.799860
17.020000	29.799860
17.030000	29.799860
17.040000	29.799860
17.050000	29.799860
17.060000	29.799860
17.070000	29.799860
17.080000	29.799860
17.090000	29.799860
17.100000	29.799860
17.110000	29.799860
17.120000	29.799860
17.130000	29.799860
17.140000	29.799860
17.150000	29.799860
17.160000	29.799860
17.170000	29.799860
17.180000	29.799860
17.190000	29.799860
17.200000	29.799860
17.210000	29.799860
17.220000	29.799860
17.230000	29.799860
17.240000	29.799860
17.250000	29.799860
17.260000	29.799860
17.270000	29.799860
17.280000	29.799860
17.290000	29.799860
17.300000	29.799860
17.310000	29.799860
17.320000	29.799860
17.330000	29.799860
17.340000	29.799860
17.350000	29.799860
17.360000	29.799860
17.370000	29.799860
17.380000	29.799860
17.390000	29.799860
17.400000	29.799860
17.410000	29.799860
17.420000	29.799860
17.430000	29.799860
17.440000	29.799860
17.450000	29.799860
17.460000	29.799860
17.470000	29.799860
17.480000	29.799860
17.490000	29.799860
